# Theta (deg), Enclosed Intensity, Normalized Enclosed Intensity
0.00000000 0.00000000 0.00000000
0.10000000 0.00000000 0.00000000
0.20000000 0.00000000 0.00000000
0.30000000 0.00000000 0.00000000
0.40000000 0.00000000 0.00000000
0.50000000 0.00000000 0.00000000
0.60000000 2.91811888 0.00475912
0.70000000 2.91811888 0.00475912
0.80000000 2.91811888 0.00475912
0.90000000 6.64247752 0.01083313
1.00000000 6.64247752 0.01083313
1.10000000 6.64247752 0.01083313
1.20000000 6.64247752 0.01083313
1.30000000 6.64247752 0.01083313
1.40000000 6.64247752 0.01083313
1.50000000 13.83739560 0.02256722
1.60000000 13.83739560 0.02256722
1.70000000 13.83739560 0.02256722
1.80000000 13.83739560 0.02256722
1.90000000 13.83739560 0.02256722
2.00000000 13.83739560 0.02256722
2.10000000 13.83739560 0.02256722
2.20000000 21.28578088 0.03471469
2.30000000 21.28578088 0.03471469
2.40000000 26.53876984 0.04328172
2.50000000 26.53876984 0.04328172
2.60000000 26.53876984 0.04328172
2.70000000 26.53876984 0.04328172
2.80000000 37.17317800 0.06062523
2.90000000 37.17317800 0.06062523
3.00000000 37.17317800 0.06062523
3.10000000 37.17317800 0.06062523
3.20000000 47.94404912 0.07819130
3.30000000 49.52478656 0.08076930
3.40000000 53.24621832 0.08683853
3.50000000 53.24621832 0.08683853
3.60000000 53.24621832 0.08683853
3.70000000 60.68452376 0.09896956
3.80000000 60.68452376 0.09896956
3.90000000 60.68452376 0.09896956
4.00000000 60.68452376 0.09896956
4.10000000 68.13014096 0.11111252
4.20000000 75.07853128 0.12244456
4.30000000 75.07853128 0.12244456
4.40000000 82.50544568 0.13455701
4.50000000 82.50544568 0.13455701
4.60000000 82.50544568 0.13455701
4.70000000 82.50544568 0.13455701
4.80000000 111.12697224 0.18123547
4.90000000 111.12697224 0.18123547
5.00000000 118.56930384 0.19337307
5.10000000 122.98917712 0.20058138
5.20000000 122.98917712 0.20058138
5.30000000 122.98917712 0.20058138
5.40000000 122.98917712 0.20058138
5.50000000 122.98917712 0.20058138
5.60000000 122.98917712 0.20058138
5.70000000 130.39145608 0.21265365
5.80000000 130.39145608 0.21265365
5.90000000 130.39145608 0.21265365
6.00000000 137.14744000 0.22367189
6.10000000 141.92931136 0.23147058
6.20000000 141.92931136 0.23147058
6.30000000 141.92931136 0.23147058
6.40000000 141.92931136 0.23147058
6.50000000 141.92931136 0.23147058
6.60000000 145.61865696 0.23748749
6.70000000 152.29531000 0.24837635
6.80000000 153.96835000 0.25110489
6.90000000 153.96835000 0.25110489
7.00000000 153.96835000 0.25110489
7.10000000 179.83537212 0.29329106
7.20000000 179.83537212 0.29329106
7.30000000 179.83537212 0.29329106
7.40000000 179.83537212 0.29329106
7.50000000 179.83537212 0.29329106
7.60000000 179.83537212 0.29329106
7.70000000 187.18201876 0.30527261
7.80000000 187.18201876 0.30527261
7.90000000 192.54632492 0.31402118
8.00000000 192.54632492 0.31402118
8.10000000 192.54632492 0.31402118
8.20000000 205.52264268 0.33518408
8.30000000 212.92856532 0.34726230
8.40000000 212.92856532 0.34726230
8.50000000 212.92856532 0.34726230
8.60000000 214.01712388 0.34903762
8.70000000 214.01712388 0.34903762
8.80000000 214.01712388 0.34903762
8.90000000 221.31933924 0.36094670
9.00000000 221.31933924 0.36094670
9.10000000 221.31933924 0.36094670
9.20000000 221.31933924 0.36094670
9.30000000 221.31933924 0.36094670
9.40000000 221.31933924 0.36094670
9.50000000 221.31933924 0.36094670
9.60000000 228.59277220 0.37280884
9.70000000 228.59277220 0.37280884
9.80000000 228.59277220 0.37280884
9.90000000 228.59277220 0.37280884
10.00000000 228.59277220 0.37280884
10.10000000 228.59277220 0.37280884
10.20000000 228.59277220 0.37280884
10.30000000 228.59277220 0.37280884
10.40000000 228.59277220 0.37280884
10.50000000 228.59277220 0.37280884
10.60000000 228.59277220 0.37280884
10.70000000 228.59277220 0.37280884
10.80000000 228.59277220 0.37280884
10.90000000 228.59277220 0.37280884
11.00000000 228.59277220 0.37280884
11.10000000 228.59277220 0.37280884
11.20000000 235.78913228 0.38454529
11.30000000 235.78913228 0.38454529
11.40000000 235.78913228 0.38454529
11.50000000 235.78913228 0.38454529
11.60000000 235.78913228 0.38454529
11.70000000 235.78913228 0.38454529
11.80000000 235.78913228 0.38454529
11.90000000 235.78913228 0.38454529
12.00000000 247.66858764 0.40391933
12.10000000 262.05788788 0.42738665
12.20000000 262.05788788 0.42738665
12.30000000 262.05788788 0.42738665
12.40000000 262.05788788 0.42738665
12.50000000 262.05788788 0.42738665
12.60000000 262.05788788 0.42738665
12.70000000 262.05788788 0.42738665
12.80000000 262.05788788 0.42738665
12.90000000 262.05788788 0.42738665
13.00000000 262.05788788 0.42738665
13.10000000 269.13599732 0.43893024
13.20000000 277.76204348 0.45299834
13.30000000 277.76204348 0.45299834
13.40000000 277.76204348 0.45299834
13.50000000 277.76204348 0.45299834
13.60000000 277.76204348 0.45299834
13.70000000 277.76204348 0.45299834
13.80000000 277.76204348 0.45299834
13.90000000 277.76204348 0.45299834
14.00000000 277.76204348 0.45299834
14.10000000 281.25889080 0.45870130
14.20000000 281.25889080 0.45870130
14.30000000 281.25889080 0.45870130
14.40000000 281.25889080 0.45870130
14.50000000 286.79133904 0.46772409
14.60000000 286.79133904 0.46772409
14.70000000 286.79133904 0.46772409
14.80000000 286.79133904 0.46772409
14.90000000 286.79133904 0.46772409
15.00000000 286.79133904 0.46772409
15.10000000 286.79133904 0.46772409
15.20000000 286.79133904 0.46772409
15.30000000 300.55722880 0.49017470
15.40000000 300.55722880 0.49017470
15.50000000 300.55722880 0.49017470
15.60000000 300.55722880 0.49017470
15.70000000 300.55722880 0.49017470
15.80000000 300.55722880 0.49017470
15.90000000 305.83593824 0.49878367
16.00000000 312.61961264 0.50984707
16.10000000 312.61961264 0.50984707
16.20000000 312.61961264 0.50984707
16.30000000 312.61961264 0.50984707
16.40000000 312.61961264 0.50984707
16.50000000 312.61961264 0.50984707
16.60000000 312.61961264 0.50984707
16.70000000 312.61961264 0.50984707
16.80000000 312.61961264 0.50984707
16.90000000 315.96276080 0.51529937
17.00000000 315.96276080 0.51529937
17.10000000 315.96276080 0.51529937
17.20000000 315.96276080 0.51529937
17.30000000 315.96276080 0.51529937
17.40000000 315.96276080 0.51529937
17.50000000 315.96276080 0.51529937
17.60000000 315.96276080 0.51529937
17.70000000 315.96276080 0.51529937
17.80000000 315.96276080 0.51529937
17.90000000 315.96276080 0.51529937
18.00000000 315.96276080 0.51529937
18.10000000 315.96276080 0.51529937
18.20000000 315.96276080 0.51529937
18.30000000 315.96276080 0.51529937
18.40000000 315.96276080 0.51529937
18.50000000 315.96276080 0.51529937
18.60000000 315.96276080 0.51529937
18.70000000 315.96276080 0.51529937
18.80000000 315.96276080 0.51529937
18.90000000 315.96276080 0.51529937
19.00000000 315.96276080 0.51529937
19.10000000 320.59246672 0.52284989
19.20000000 320.59246672 0.52284989
19.30000000 320.79390200 0.52317841
19.40000000 320.79390200 0.52317841
19.50000000 320.79390200 0.52317841
19.60000000 320.79390200 0.52317841
19.70000000 320.79390200 0.52317841
19.80000000 320.79390200 0.52317841
19.90000000 320.79390200 0.52317841
20.00000000 320.79390200 0.52317841
20.10000000 320.79390200 0.52317841
20.20000000 327.01319504 0.53332137
20.30000000 327.01319504 0.53332137
20.40000000 327.01319504 0.53332137
20.50000000 327.01319504 0.53332137
20.60000000 327.01319504 0.53332137
20.70000000 327.01319504 0.53332137
20.80000000 327.01319504 0.53332137
20.90000000 327.01319504 0.53332137
21.00000000 327.01319504 0.53332137
21.10000000 331.22262232 0.54018647
21.20000000 331.22262232 0.54018647
21.30000000 331.22262232 0.54018647
21.40000000 331.22262232 0.54018647
21.50000000 331.22262232 0.54018647
21.60000000 331.22262232 0.54018647
21.70000000 331.22262232 0.54018647
21.80000000 331.22262232 0.54018647
21.90000000 331.22262232 0.54018647
22.00000000 331.22262232 0.54018647
22.10000000 331.22262232 0.54018647
22.20000000 331.22262232 0.54018647
22.30000000 331.22262232 0.54018647
22.40000000 331.22262232 0.54018647
22.50000000 331.22262232 0.54018647
22.60000000 331.22262232 0.54018647
22.70000000 331.22262232 0.54018647
22.80000000 331.22262232 0.54018647
22.90000000 331.22262232 0.54018647
23.00000000 331.22262232 0.54018647
23.10000000 331.22262232 0.54018647
23.20000000 331.22262232 0.54018647
23.30000000 331.22262232 0.54018647
23.40000000 331.22262232 0.54018647
23.50000000 331.22262232 0.54018647
23.60000000 331.22262232 0.54018647
23.70000000 331.22262232 0.54018647
23.80000000 331.22262232 0.54018647
23.90000000 331.22262232 0.54018647
24.00000000 331.22262232 0.54018647
24.10000000 331.22262232 0.54018647
24.20000000 331.22262232 0.54018647
24.30000000 331.22262232 0.54018647
24.40000000 331.22262232 0.54018647
24.50000000 331.22262232 0.54018647
24.60000000 331.22262232 0.54018647
24.70000000 331.22262232 0.54018647
24.80000000 331.22262232 0.54018647
24.90000000 331.22262232 0.54018647
25.00000000 331.22262232 0.54018647
25.10000000 331.22262232 0.54018647
25.20000000 331.22262232 0.54018647
25.30000000 331.22262232 0.54018647
25.40000000 331.22262232 0.54018647
25.50000000 331.22262232 0.54018647
25.60000000 341.68808792 0.55725446
25.70000000 341.68808792 0.55725446
25.80000000 341.68808792 0.55725446
25.90000000 341.68808792 0.55725446
26.00000000 341.68808792 0.55725446
26.10000000 341.68808792 0.55725446
26.20000000 341.68808792 0.55725446
26.30000000 341.68808792 0.55725446
26.40000000 341.68808792 0.55725446
26.50000000 341.68808792 0.55725446
26.60000000 341.68808792 0.55725446
26.70000000 341.68808792 0.55725446
26.80000000 341.68808792 0.55725446
26.90000000 341.68808792 0.55725446
27.00000000 341.80947544 0.55745243
27.10000000 341.80947544 0.55745243
27.20000000 341.80947544 0.55745243
27.30000000 341.80947544 0.55745243
27.40000000 341.80947544 0.55745243
27.50000000 341.80947544 0.55745243
27.60000000 341.80947544 0.55745243
27.70000000 341.80947544 0.55745243
27.80000000 341.80947544 0.55745243
27.90000000 341.80947544 0.55745243
28.00000000 341.80947544 0.55745243
28.10000000 341.80947544 0.55745243
28.20000000 341.80947544 0.55745243
28.30000000 341.80947544 0.55745243
28.40000000 341.80947544 0.55745243
28.50000000 341.80947544 0.55745243
28.60000000 341.80947544 0.55745243
28.70000000 341.80947544 0.55745243
28.80000000 341.80947544 0.55745243
28.90000000 341.80947544 0.55745243
29.00000000 341.80947544 0.55745243
29.10000000 341.80947544 0.55745243
29.20000000 341.80947544 0.55745243
29.30000000 344.11285856 0.56120898
29.40000000 344.11285856 0.56120898
29.50000000 344.11285856 0.56120898
29.60000000 344.11285856 0.56120898
29.70000000 344.11285856 0.56120898
29.80000000 344.11285856 0.56120898
29.90000000 344.11285856 0.56120898
30.00000000 347.60906968 0.56691090
30.10000000 347.60906968 0.56691090
30.20000000 347.60906968 0.56691090
30.30000000 347.60906968 0.56691090
30.40000000 347.60906968 0.56691090
30.50000000 347.60906968 0.56691090
30.60000000 347.60906968 0.56691090
30.70000000 347.60906968 0.56691090
30.80000000 347.60906968 0.56691090
30.90000000 347.60906968 0.56691090
31.00000000 348.23886184 0.56793802
31.10000000 348.23886184 0.56793802
31.20000000 348.23886184 0.56793802
31.30000000 348.23886184 0.56793802
31.40000000 348.23886184 0.56793802
31.50000000 348.50908480 0.56837873
31.60000000 348.50908480 0.56837873
31.70000000 348.50908480 0.56837873
31.80000000 348.50908480 0.56837873
31.90000000 348.50908480 0.56837873
32.00000000 348.50908480 0.56837873
32.10000000 348.50908480 0.56837873
32.20000000 348.50908480 0.56837873
32.30000000 348.50908480 0.56837873
32.40000000 348.51307960 0.56838524
32.50000000 348.51307960 0.56838524
32.60000000 348.51307960 0.56838524
32.70000000 348.51307960 0.56838524
32.80000000 348.51307960 0.56838524
32.90000000 348.51307960 0.56838524
33.00000000 348.51307960 0.56838524
33.10000000 348.51307960 0.56838524
33.20000000 348.51307960 0.56838524
33.30000000 348.51307960 0.56838524
33.40000000 348.51307960 0.56838524
33.50000000 348.51307960 0.56838524
33.60000000 348.51307960 0.56838524
33.70000000 349.85177496 0.57056850
33.80000000 349.85177496 0.57056850
33.90000000 349.85177496 0.57056850
34.00000000 349.85177496 0.57056850
34.10000000 349.85177496 0.57056850
34.20000000 349.85177496 0.57056850
34.30000000 349.85177496 0.57056850
34.40000000 349.85177496 0.57056850
34.50000000 349.85177496 0.57056850
34.60000000 349.85177496 0.57056850
34.70000000 349.85177496 0.57056850
34.80000000 349.85177496 0.57056850
34.90000000 349.85177496 0.57056850
35.00000000 349.85177496 0.57056850
35.10000000 349.85177496 0.57056850
35.20000000 349.85177496 0.57056850
35.30000000 349.85177496 0.57056850
35.40000000 349.85177496 0.57056850
35.50000000 349.85177496 0.57056850
35.60000000 349.85177496 0.57056850
35.70000000 349.85177496 0.57056850
35.80000000 349.85177496 0.57056850
35.90000000 349.85177496 0.57056850
36.00000000 349.85177496 0.57056850
36.10000000 349.85177496 0.57056850
36.20000000 349.85177496 0.57056850
36.30000000 349.85177496 0.57056850
36.40000000 349.85177496 0.57056850
36.50000000 349.85177496 0.57056850
36.60000000 349.85177496 0.57056850
36.70000000 349.85177496 0.57056850
36.80000000 349.85177496 0.57056850
36.90000000 349.85177496 0.57056850
37.00000000 349.85177496 0.57056850
37.10000000 349.85177496 0.57056850
37.20000000 349.85177496 0.57056850
37.30000000 349.85177496 0.57056850
37.40000000 349.85177496 0.57056850
37.50000000 349.85177496 0.57056850
37.60000000 349.85177496 0.57056850
37.70000000 349.85177496 0.57056850
37.80000000 349.85177496 0.57056850
37.90000000 349.85177496 0.57056850
38.00000000 349.85177496 0.57056850
38.10000000 349.85177496 0.57056850
38.20000000 349.85177496 0.57056850
38.30000000 349.85177496 0.57056850
38.40000000 349.85177496 0.57056850
38.50000000 349.86336688 0.57058741
38.60000000 349.86336688 0.57058741
38.70000000 349.86336688 0.57058741
38.80000000 349.86336688 0.57058741
38.90000000 349.86336688 0.57058741
39.00000000 349.86336688 0.57058741
39.10000000 350.38650328 0.57144058
39.20000000 350.38650328 0.57144058
39.30000000 350.38650328 0.57144058
39.40000000 350.38650328 0.57144058
39.50000000 350.38650328 0.57144058
39.60000000 350.38650328 0.57144058
39.70000000 350.38650328 0.57144058
39.80000000 350.38650328 0.57144058
39.90000000 350.38650328 0.57144058
40.00000000 350.38650328 0.57144058
40.10000000 350.38650328 0.57144058
40.20000000 350.38650328 0.57144058
40.30000000 350.38650328 0.57144058
40.40000000 350.38650328 0.57144058
40.50000000 350.38650328 0.57144058
40.60000000 350.38650328 0.57144058
40.70000000 350.38650328 0.57144058
40.80000000 350.86083304 0.57221416
40.90000000 350.86083304 0.57221416
41.00000000 350.86083304 0.57221416
41.10000000 350.86083304 0.57221416
41.20000000 350.86083304 0.57221416
41.30000000 350.86083304 0.57221416
41.40000000 350.86083304 0.57221416
41.50000000 350.86083304 0.57221416
41.60000000 350.86083304 0.57221416
41.70000000 350.86083304 0.57221416
41.80000000 350.86083304 0.57221416
41.90000000 350.86083304 0.57221416
42.00000000 350.86083304 0.57221416
42.10000000 350.86083304 0.57221416
42.20000000 350.86083304 0.57221416
42.30000000 350.86083304 0.57221416
42.40000000 350.86083304 0.57221416
42.50000000 350.86083304 0.57221416
42.60000000 350.86083304 0.57221416
42.70000000 350.86083304 0.57221416
42.80000000 350.86083304 0.57221416
42.90000000 350.86083304 0.57221416
43.00000000 350.86083304 0.57221416
43.10000000 350.86083304 0.57221416
43.20000000 350.86083304 0.57221416
43.30000000 350.86083304 0.57221416
43.40000000 350.86083304 0.57221416
43.50000000 350.86083304 0.57221416
43.60000000 350.86083304 0.57221416
43.70000000 350.86083304 0.57221416
43.80000000 350.86083304 0.57221416
43.90000000 350.86083304 0.57221416
44.00000000 350.86083304 0.57221416
44.10000000 350.86083304 0.57221416
44.20000000 350.92497088 0.57231876
44.30000000 350.92497088 0.57231876
44.40000000 350.92497088 0.57231876
44.50000000 350.92497088 0.57231876
44.60000000 350.92497088 0.57231876
44.70000000 350.92497088 0.57231876
44.80000000 350.92497088 0.57231876
44.90000000 350.92497088 0.57231876
45.00000000 350.92497088 0.57231876
45.10000000 350.92497088 0.57231876
45.20000000 350.92497088 0.57231876
45.30000000 350.92497088 0.57231876
45.40000000 350.92497088 0.57231876
45.50000000 350.92497088 0.57231876
45.60000000 350.92497088 0.57231876
45.70000000 350.92497088 0.57231876
45.80000000 350.92497088 0.57231876
45.90000000 350.92497088 0.57231876
46.00000000 350.92497088 0.57231876
46.10000000 350.92497088 0.57231876
46.20000000 350.92497088 0.57231876
46.30000000 350.92497088 0.57231876
46.40000000 350.92497088 0.57231876
46.50000000 350.92497088 0.57231876
46.60000000 350.92497088 0.57231876
46.70000000 350.92497088 0.57231876
46.80000000 350.92497088 0.57231876
46.90000000 350.92497088 0.57231876
47.00000000 350.92497088 0.57231876
47.10000000 350.92497088 0.57231876
47.20000000 350.92497088 0.57231876
47.30000000 350.92497088 0.57231876
47.40000000 350.92497088 0.57231876
47.50000000 350.92497088 0.57231876
47.60000000 350.96920392 0.57239090
47.70000000 350.96920392 0.57239090
47.80000000 350.96920392 0.57239090
47.90000000 350.96920392 0.57239090
48.00000000 350.96920392 0.57239090
48.10000000 350.96920392 0.57239090
48.20000000 350.96920392 0.57239090
48.30000000 350.96920392 0.57239090
48.40000000 350.96920392 0.57239090
48.50000000 350.96920392 0.57239090
48.60000000 350.96920392 0.57239090
48.70000000 350.96920392 0.57239090
48.80000000 350.96920392 0.57239090
48.90000000 350.96920392 0.57239090
49.00000000 350.96920392 0.57239090
49.10000000 350.96920392 0.57239090
49.20000000 350.96920392 0.57239090
49.30000000 350.96920392 0.57239090
49.40000000 350.96920392 0.57239090
49.50000000 350.96920392 0.57239090
49.60000000 350.96920392 0.57239090
49.70000000 350.96920392 0.57239090
49.80000000 350.96920392 0.57239090
49.90000000 350.96920392 0.57239090
50.00000000 350.96920392 0.57239090
50.10000000 350.96920392 0.57239090
50.20000000 350.96920392 0.57239090
50.30000000 350.96920392 0.57239090
50.40000000 350.96920392 0.57239090
50.50000000 350.96920392 0.57239090
50.60000000 350.96920392 0.57239090
50.70000000 350.96920392 0.57239090
50.80000000 350.96920392 0.57239090
50.90000000 350.96920392 0.57239090
51.00000000 350.96920392 0.57239090
51.10000000 350.96920392 0.57239090
51.20000000 350.96920392 0.57239090
51.30000000 350.96920392 0.57239090
51.40000000 350.96920392 0.57239090
51.50000000 350.96920392 0.57239090
51.60000000 350.96920392 0.57239090
51.70000000 350.96920392 0.57239090
51.80000000 350.96920392 0.57239090
51.90000000 350.97338600 0.57239772
52.00000000 350.97338600 0.57239772
52.10000000 350.97338600 0.57239772
52.20000000 350.97338600 0.57239772
52.30000000 350.97338600 0.57239772
52.40000000 350.97338600 0.57239772
52.50000000 350.97338600 0.57239772
52.60000000 350.97338600 0.57239772
52.70000000 350.97338600 0.57239772
52.80000000 350.97338600 0.57239772
52.90000000 350.97338600 0.57239772
53.00000000 350.97338600 0.57239772
53.10000000 350.97338600 0.57239772
53.20000000 350.97338600 0.57239772
53.30000000 350.97338600 0.57239772
53.40000000 350.97338600 0.57239772
53.50000000 358.97331632 0.58544470
53.60000000 358.97331632 0.58544470
53.70000000 358.99633752 0.58548224
53.80000000 358.99633752 0.58548224
53.90000000 358.99633752 0.58548224
54.00000000 366.99626376 0.59852922
54.10000000 366.99626376 0.59852922
54.20000000 366.99626376 0.59852922
54.30000000 366.99626376 0.59852922
54.40000000 366.99626376 0.59852922
54.50000000 366.99626376 0.59852922
54.60000000 366.99626376 0.59852922
54.70000000 366.99626376 0.59852922
54.80000000 366.99626376 0.59852922
54.90000000 366.99626376 0.59852922
55.00000000 390.99601416 0.63767008
55.10000000 390.99601416 0.63767008
55.20000000 390.99601416 0.63767008
55.30000000 390.99601416 0.63767008
55.40000000 390.99601416 0.63767008
55.50000000 390.99601416 0.63767008
55.60000000 390.99601416 0.63767008
55.70000000 390.99601416 0.63767008
55.80000000 390.99601416 0.63767008
55.90000000 390.99667552 0.63767116
56.00000000 390.99667552 0.63767116
56.10000000 398.99658112 0.65071810
56.20000000 398.99658112 0.65071810
56.30000000 398.99658112 0.65071810
56.40000000 398.99658112 0.65071810
56.50000000 398.99658112 0.65071810
56.60000000 407.01367112 0.66379306
56.70000000 407.01367112 0.66379306
56.80000000 407.01367112 0.66379306
56.90000000 407.01367112 0.66379306
57.00000000 407.01367112 0.66379306
57.10000000 407.01367112 0.66379306
57.20000000 407.01367112 0.66379306
57.30000000 407.01367112 0.66379306
57.40000000 407.01367112 0.66379306
57.50000000 407.01367112 0.66379306
57.60000000 407.01367112 0.66379306
57.70000000 407.01367112 0.66379306
57.80000000 407.02093432 0.66380491
57.90000000 407.02093432 0.66380491
58.00000000 407.02093432 0.66380491
58.10000000 415.02080992 0.67685180
58.20000000 415.02080992 0.67685180
58.30000000 415.02438512 0.67685763
58.40000000 415.02438512 0.67685763
58.50000000 415.02438512 0.67685763
58.60000000 415.02438512 0.67685763
58.70000000 423.02425120 0.68990450
58.80000000 423.02425120 0.68990450
58.90000000 423.02425120 0.68990450
59.00000000 423.02425120 0.68990450
59.10000000 423.02425120 0.68990450
59.20000000 423.04386412 0.68993648
59.30000000 423.04386412 0.68993648
59.40000000 423.04386412 0.68993648
59.50000000 423.04386412 0.68993648
59.60000000 423.04473508 0.68993791
59.70000000 423.04473508 0.68993791
59.80000000 427.04465688 0.69646132
59.90000000 427.04465688 0.69646132
60.00000000 427.04465688 0.69646132
60.10000000 427.04465688 0.69646132
60.20000000 427.04465688 0.69646132
60.30000000 443.04431768 0.72255495
60.40000000 443.04431768 0.72255495
60.50000000 443.04431768 0.72255495
60.60000000 443.04431768 0.72255495
60.70000000 443.04431768 0.72255495
60.80000000 443.04431768 0.72255495
60.90000000 451.04413328 0.73560174
61.00000000 451.04413328 0.73560174
61.10000000 451.04413328 0.73560174
61.20000000 451.04413328 0.73560174
61.30000000 451.04413328 0.73560174
61.40000000 459.04393216 0.74864851
61.50000000 459.04393216 0.74864851
61.60000000 459.04393216 0.74864851
61.70000000 459.04393216 0.74864851
61.80000000 459.06414320 0.74868147
61.90000000 459.06414320 0.74868147
62.00000000 475.06370336 0.77477493
62.10000000 475.06370336 0.77477493
62.20000000 475.06370336 0.77477493
62.30000000 475.06370336 0.77477493
62.40000000 475.06370336 0.77477493
62.50000000 475.06370336 0.77477493
62.60000000 475.06370336 0.77477493
62.70000000 475.06370336 0.77477493
62.80000000 475.06370336 0.77477493
62.90000000 475.06370336 0.77477493
63.00000000 475.06370336 0.77477493
63.10000000 475.06370336 0.77477493
63.20000000 475.06370336 0.77477493
63.30000000 475.06370336 0.77477493
63.40000000 475.06370336 0.77477493
63.50000000 475.06370336 0.77477493
63.60000000 475.06370336 0.77477493
63.70000000 483.06340984 0.78782155
63.80000000 483.06340984 0.78782155
63.90000000 483.06340984 0.78782155
64.00000000 483.06340984 0.78782155
64.10000000 483.06340984 0.78782155
64.20000000 483.06340984 0.78782155
64.30000000 483.06340984 0.78782155
64.40000000 483.06704728 0.78782748
64.50000000 483.06704728 0.78782748
64.60000000 486.89731896 0.79407422
64.70000000 486.89731896 0.79407422
64.80000000 486.89731896 0.79407422
64.90000000 486.89731896 0.79407422
65.00000000 494.89695624 0.80712072
65.10000000 494.89695624 0.80712072
65.20000000 494.89695624 0.80712072
65.30000000 494.89695624 0.80712072
65.40000000 495.03064296 0.80733874
65.50000000 495.03064296 0.80733874
65.60000000 503.03023704 0.82038517
65.70000000 503.03023704 0.82038517
65.80000000 503.03023704 0.82038517
65.90000000 503.03023704 0.82038517
66.00000000 503.03023704 0.82038517
66.10000000 503.03023704 0.82038517
66.20000000 511.02978040 0.83343152
66.30000000 511.02978040 0.83343152
66.40000000 511.02978040 0.83343152
66.50000000 511.02978040 0.83343152
66.60000000 511.02978040 0.83343152
66.70000000 511.02978040 0.83343152
66.80000000 511.02978040 0.83343152
66.90000000 519.02926376 0.84647777
67.00000000 519.02926376 0.84647777
67.10000000 519.02926376 0.84647777
67.20000000 519.02926376 0.84647777
67.30000000 519.02926376 0.84647777
67.40000000 519.02926376 0.84647777
67.50000000 519.02926376 0.84647777
67.60000000 519.02926376 0.84647777
67.70000000 519.02926376 0.84647777
67.80000000 519.02926376 0.84647777
67.90000000 519.02926376 0.84647777
68.00000000 519.02926376 0.84647777
68.10000000 519.02926376 0.84647777
68.20000000 519.02926376 0.84647777
68.30000000 519.02926376 0.84647777
68.40000000 519.02926376 0.84647777
68.50000000 519.02926376 0.84647777
68.60000000 519.02926376 0.84647777
68.70000000 519.02926376 0.84647777
68.80000000 519.02926376 0.84647777
68.90000000 527.02848440 0.85952359
69.00000000 527.02848440 0.85952359
69.10000000 527.02848440 0.85952359
69.20000000 527.02848440 0.85952359
69.30000000 527.02848440 0.85952359
69.40000000 527.02848440 0.85952359
69.50000000 527.02848440 0.85952359
69.60000000 551.02575800 0.89866042
69.70000000 551.02575800 0.89866042
69.80000000 551.02575800 0.89866042
69.90000000 551.02575800 0.89866042
70.00000000 551.02575800 0.89866042
70.10000000 551.02575800 0.89866042
70.20000000 551.02575800 0.89866042
70.30000000 551.02575800 0.89866042
70.40000000 551.02575800 0.89866042
70.50000000 551.02575800 0.89866042
70.60000000 551.02575800 0.89866042
70.70000000 551.02575800 0.89866042
70.80000000 551.02575800 0.89866042
70.90000000 551.02575800 0.89866042
71.00000000 551.03395976 0.89867379
71.10000000 559.03268352 0.91171880
71.20000000 559.03268352 0.91171880
71.30000000 559.03268352 0.91171880
71.40000000 559.03268352 0.91171880
71.50000000 559.03268352 0.91171880
71.60000000 559.03268352 0.91171880
71.70000000 559.03268352 0.91171880
71.80000000 559.03268352 0.91171880
71.90000000 559.03268352 0.91171880
72.00000000 559.03268352 0.91171880
72.10000000 559.03268352 0.91171880
72.20000000 559.03268352 0.91171880
72.30000000 559.03268352 0.91171880
72.40000000 559.03268352 0.91171880
72.50000000 559.03268352 0.91171880
72.60000000 559.03268352 0.91171880
72.70000000 559.03268352 0.91171880
72.80000000 563.03173556 0.91824080
72.90000000 563.03173556 0.91824080
73.00000000 563.03173556 0.91824080
73.10000000 563.03173556 0.91824080
73.20000000 563.03173556 0.91824080
73.30000000 563.03173556 0.91824080
73.40000000 563.03173556 0.91824080
73.50000000 563.03173556 0.91824080
73.60000000 579.02698132 0.94432723
73.70000000 579.02698132 0.94432723
73.80000000 579.02698132 0.94432723
73.90000000 579.02698132 0.94432723
74.00000000 579.09666820 0.94444088
74.10000000 579.18066284 0.94457787
74.20000000 579.22916524 0.94465697
74.30000000 579.22916524 0.94465697
74.40000000 579.22916524 0.94465697
74.50000000 587.22611044 0.95769908
74.60000000 587.22611044 0.95769908
74.70000000 587.22611044 0.95769908
74.80000000 587.40900676 0.95799736
74.90000000 587.40900676 0.95799736
75.00000000 587.40900676 0.95799736
75.10000000 587.40900676 0.95799736
75.20000000 587.41178876 0.95800190
75.30000000 587.41178876 0.95800190
75.40000000 587.41178876 0.95800190
75.50000000 587.55671076 0.95823825
75.60000000 587.55671076 0.95823825
75.70000000 587.55671076 0.95823825
75.80000000 587.55671076 0.95823825
75.90000000 587.55671076 0.95823825
76.00000000 587.55671076 0.95823825
76.10000000 587.55671076 0.95823825
76.20000000 587.55671076 0.95823825
76.30000000 587.55671076 0.95823825
76.40000000 587.55671076 0.95823825
76.50000000 595.55111748 0.97127622
76.60000000 595.55111748 0.97127622
76.70000000 595.55111748 0.97127622
76.80000000 595.55111748 0.97127622
76.90000000 595.94841740 0.97192417
77.00000000 595.94841740 0.97192417
77.10000000 595.94841740 0.97192417
77.20000000 595.95073956 0.97192796
77.30000000 595.95073956 0.97192796
77.40000000 595.95073956 0.97192796
77.50000000 595.95073956 0.97192796
77.60000000 603.94257364 0.98496173
77.70000000 603.94257364 0.98496173
77.80000000 603.94257364 0.98496173
77.90000000 603.94257364 0.98496173
78.00000000 603.94257364 0.98496173
78.10000000 603.94257364 0.98496173
78.20000000 603.94257364 0.98496173
78.30000000 604.02532484 0.98509669
78.40000000 604.02532484 0.98509669
78.50000000 604.02532484 0.98509669
78.60000000 604.02532484 0.98509669
78.70000000 604.02532484 0.98509669
78.80000000 604.02532484 0.98509669
78.90000000 604.02532484 0.98509669
79.00000000 604.02532484 0.98509669
79.10000000 604.03517844 0.98511276
79.20000000 604.03517844 0.98511276
79.30000000 604.03517844 0.98511276
79.40000000 604.13231388 0.98527118
79.50000000 604.13231388 0.98527118
79.60000000 604.55012220 0.98595257
79.70000000 604.55012220 0.98595257
79.80000000 604.55012220 0.98595257
79.90000000 604.55012220 0.98595257
80.00000000 604.55012220 0.98595257
80.10000000 604.55012220 0.98595257
80.20000000 604.55012220 0.98595257
80.30000000 604.55012220 0.98595257
80.40000000 604.55012220 0.98595257
80.50000000 604.55012220 0.98595257
80.60000000 604.55012220 0.98595257
80.70000000 604.55012220 0.98595257
80.80000000 604.55012220 0.98595257
80.90000000 604.55012220 0.98595257
81.00000000 604.55012220 0.98595257
81.10000000 604.55343788 0.98595798
81.20000000 604.55343788 0.98595798
81.30000000 604.55343788 0.98595798
81.40000000 604.55343788 0.98595798
81.50000000 604.55343788 0.98595798
81.60000000 604.55343788 0.98595798
81.70000000 604.55343788 0.98595798
81.80000000 604.81403212 0.98638298
81.90000000 604.81403212 0.98638298
82.00000000 604.81403212 0.98638298
82.10000000 604.81403212 0.98638298
82.20000000 604.81403212 0.98638298
82.30000000 604.81403212 0.98638298
82.40000000 604.81403212 0.98638298
82.50000000 604.81403212 0.98638298
82.60000000 604.81403212 0.98638298
82.70000000 604.81793932 0.98638935
82.80000000 604.81793932 0.98638935
82.90000000 604.81793932 0.98638935
83.00000000 604.81935628 0.98639166
83.10000000 604.81935628 0.98639166
83.20000000 604.81935628 0.98639166
83.30000000 612.61464468 0.99910489
83.40000000 612.61464468 0.99910489
83.50000000 612.61464468 0.99910489
83.60000000 612.61464468 0.99910489
83.70000000 612.61464468 0.99910489
83.80000000 612.61464468 0.99910489
83.90000000 612.61464468 0.99910489
84.00000000 612.61464468 0.99910489
84.10000000 612.61464468 0.99910489
84.20000000 612.61527132 0.99910592
84.30000000 612.76730124 0.99935386
84.40000000 612.76730124 0.99935386
84.50000000 612.76730124 0.99935386
84.60000000 612.76730124 0.99935386
84.70000000 612.76730124 0.99935386
84.80000000 612.76730124 0.99935386
84.90000000 612.76730124 0.99935386
85.00000000 612.76730124 0.99935386
85.10000000 612.88845876 0.99955145
85.20000000 612.88845876 0.99955145
85.30000000 612.88845876 0.99955145
85.40000000 612.88845876 0.99955145
85.50000000 612.88845876 0.99955145
85.60000000 612.92053060 0.99960376
85.70000000 612.93693928 0.99963052
85.80000000 612.93777304 0.99963188
85.90000000 612.95507112 0.99966009
86.00000000 612.98644152 0.99971125
86.10000000 612.98644152 0.99971125
86.20000000 612.98644152 0.99971125
86.30000000 612.98644152 0.99971125
86.40000000 613.10302592 0.99990139
86.50000000 613.14510920 0.99997002
86.60000000 613.14510920 0.99997002
86.70000000 613.14616672 0.99997175
86.80000000 613.14616672 0.99997175
86.90000000 613.14616672 0.99997175
87.00000000 613.14616672 0.99997175
87.10000000 613.14616672 0.99997175
87.20000000 613.14616672 0.99997175
87.30000000 613.14616672 0.99997175
87.40000000 613.14616672 0.99997175
87.50000000 613.14616672 0.99997175
87.60000000 613.15737648 0.99999003
87.70000000 613.15737648 0.99999003
87.80000000 613.15737648 0.99999003
87.90000000 613.15737648 0.99999003
88.00000000 613.15737648 0.99999003
88.10000000 613.15737648 0.99999003
88.20000000 613.15737648 0.99999003
88.30000000 613.15737648 0.99999003
88.40000000 613.15737648 0.99999003
88.50000000 613.15876104 0.99999228
88.60000000 613.15876104 0.99999228
88.70000000 613.16133112 0.99999648
88.80000000 613.16133112 0.99999648
88.90000000 613.16133112 0.99999648
89.00000000 613.16133112 0.99999648
89.10000000 613.16133112 0.99999648
89.20000000 613.16133112 0.99999648
89.30000000 613.16133112 0.99999648
89.40000000 613.16349160 1.00000000
89.50000000 613.16349160 1.00000000
89.60000000 613.16349160 1.00000000
89.70000000 613.16349160 1.00000000
89.80000000 613.16349160 1.00000000
89.90000000 613.16349160 1.00000000
90.00000000 613.16349160 1.00000000
