# Theta (deg), Enclosed Intensity, Normalized Enclosed Intensity
0.00000000 0.00000000 0.00000000
0.10000000 0.00000000 0.00000000
0.20000000 0.00000000 0.00000000
0.30000000 0.00000000 0.00000000
0.40000000 0.00000000 0.00000000
0.50000000 0.00000000 0.00000000
0.60000000 0.00000000 0.00000000
0.70000000 3.93731012 0.00660986
0.80000000 3.93731012 0.00660986
0.90000000 3.93731012 0.00660986
1.00000000 3.93731012 0.00660986
1.10000000 3.93731012 0.00660986
1.20000000 3.93731012 0.00660986
1.30000000 11.81186836 0.01982948
1.40000000 11.81186836 0.01982948
1.50000000 15.72444532 0.02639781
1.60000000 15.72444532 0.02639781
1.70000000 15.72444532 0.02639781
1.80000000 15.72444532 0.02639781
1.90000000 23.59870940 0.03961694
2.00000000 23.59870940 0.03961694
2.10000000 23.59870940 0.03961694
2.20000000 27.53522316 0.04622546
2.30000000 27.53522316 0.04622546
2.40000000 35.40856444 0.05944303
2.50000000 39.61003996 0.06649637
2.60000000 39.61003996 0.06649637
2.70000000 47.48236244 0.07971223
2.80000000 47.48236244 0.07971223
2.90000000 50.55628004 0.08487265
3.00000000 50.55628004 0.08487265
3.10000000 50.55628004 0.08487265
3.20000000 56.89533812 0.09551450
3.30000000 60.82924384 0.10211865
3.40000000 60.82924384 0.10211865
3.50000000 60.82924384 0.10211865
3.60000000 60.82924384 0.10211865
3.70000000 68.68834096 0.11531231
3.80000000 76.55232552 0.12851417
3.90000000 91.76959880 0.15406056
4.00000000 99.61266640 0.16722731
4.10000000 99.61266640 0.16722731
4.20000000 102.23429136 0.17162843
4.30000000 102.23429136 0.17162843
4.40000000 102.23429136 0.17162843
4.50000000 116.66826472 0.19585983
4.60000000 116.66826472 0.19585983
4.70000000 134.40401672 0.22563418
4.80000000 153.67124148 0.25797953
4.90000000 168.74478836 0.28328463
5.00000000 176.58315492 0.29644349
5.10000000 176.58315492 0.29644349
5.20000000 192.24209076 0.32273133
5.30000000 199.73807148 0.33531539
5.40000000 219.06904384 0.36776776
5.50000000 234.71978320 0.39404184
5.60000000 234.71978320 0.39404184
5.70000000 234.71978320 0.39404184
5.80000000 234.71978320 0.39404184
5.90000000 242.51871632 0.40713450
6.00000000 242.51871632 0.40713450
6.10000000 242.51871632 0.40713450
6.20000000 242.51871632 0.40713450
6.30000000 258.01607856 0.43315109
6.40000000 258.01607856 0.43315109
6.50000000 265.79901200 0.44621689
6.60000000 281.32603216 0.47228327
6.70000000 281.32603216 0.47228327
6.80000000 289.08484312 0.48530857
6.90000000 289.08484312 0.48530857
7.00000000 296.73255208 0.49814736
7.10000000 307.30024948 0.51588815
7.20000000 334.55707452 0.56164624
7.30000000 334.55707452 0.56164624
7.40000000 338.74467724 0.56867629
7.50000000 338.74467724 0.56867629
7.60000000 338.74467724 0.56867629
7.70000000 338.74467724 0.56867629
7.80000000 338.74467724 0.56867629
7.90000000 338.74467724 0.56867629
8.00000000 357.74010996 0.60056536
8.10000000 357.74010996 0.60056536
8.20000000 357.74010996 0.60056536
8.30000000 357.74010996 0.60056536
8.40000000 390.07926872 0.65485555
8.50000000 396.98447456 0.66644784
8.60000000 396.98447456 0.66644784
8.70000000 396.98447456 0.66644784
8.80000000 396.98447456 0.66644784
8.90000000 396.98447456 0.66644784
9.00000000 396.98447456 0.66644784
9.10000000 396.98447456 0.66644784
9.20000000 396.98447456 0.66644784
9.30000000 396.98447456 0.66644784
9.40000000 396.98447456 0.66644784
9.50000000 396.98447456 0.66644784
9.60000000 403.25003136 0.67696630
9.70000000 414.11812764 0.69521140
9.80000000 428.86113212 0.71996159
9.90000000 443.24905300 0.74411568
10.00000000 443.24905300 0.74411568
10.10000000 443.24905300 0.74411568
10.20000000 443.24905300 0.74411568
10.30000000 443.24905300 0.74411568
10.40000000 443.24905300 0.74411568
10.50000000 443.24905300 0.74411568
10.60000000 443.24905300 0.74411568
10.70000000 443.24905300 0.74411568
10.80000000 458.81107044 0.77024082
10.90000000 458.81107044 0.77024082
11.00000000 465.94011452 0.78220888
11.10000000 465.94011452 0.78220888
11.20000000 465.94011452 0.78220888
11.30000000 465.94011452 0.78220888
11.40000000 472.87159500 0.79384528
11.50000000 472.87159500 0.79384528
11.60000000 486.21725068 0.81624964
11.70000000 486.60384428 0.81689865
11.80000000 486.60384428 0.81689865
11.90000000 486.60384428 0.81689865
12.00000000 486.60384428 0.81689865
12.10000000 486.60384428 0.81689865
12.20000000 486.60384428 0.81689865
12.30000000 492.48874740 0.82677808
12.40000000 492.54054324 0.82686503
12.50000000 492.54054324 0.82686503
12.60000000 492.54054324 0.82686503
12.70000000 492.54054324 0.82686503
12.80000000 492.54054324 0.82686503
12.90000000 492.54054324 0.82686503
13.00000000 492.54054324 0.82686503
13.10000000 492.54054324 0.82686503
13.20000000 497.76415500 0.83563430
13.30000000 497.76415500 0.83563430
13.40000000 497.76415500 0.83563430
13.50000000 497.78411012 0.83566780
13.60000000 504.22637852 0.84648293
13.70000000 504.22637852 0.84648293
13.80000000 514.49744636 0.86372574
13.90000000 520.52526140 0.87384509
14.00000000 520.52526140 0.87384509
14.10000000 520.52526140 0.87384509
14.20000000 520.52526140 0.87384509
14.30000000 520.52526140 0.87384509
14.40000000 533.96205828 0.89640246
14.50000000 533.96205828 0.89640246
14.60000000 533.96205828 0.89640246
14.70000000 533.96205828 0.89640246
14.80000000 533.96205828 0.89640246
14.90000000 533.96205828 0.89640246
15.00000000 533.96205828 0.89640246
15.10000000 533.96205828 0.89640246
15.20000000 533.98101148 0.89643428
15.30000000 534.24410284 0.89687595
15.40000000 534.24410284 0.89687595
15.50000000 534.24410284 0.89687595
15.60000000 534.24410284 0.89687595
15.70000000 534.24410284 0.89687595
15.80000000 534.24410284 0.89687595
15.90000000 534.24410284 0.89687595
16.00000000 534.24410284 0.89687595
16.10000000 534.24410284 0.89687595
16.20000000 534.24410284 0.89687595
16.30000000 534.24410284 0.89687595
16.40000000 534.24410284 0.89687595
16.50000000 534.24410284 0.89687595
16.60000000 534.24410284 0.89687595
16.70000000 534.24410284 0.89687595
16.80000000 534.26444804 0.89691010
16.90000000 534.26444804 0.89691010
17.00000000 534.32688804 0.89701493
17.10000000 534.32688804 0.89701493
17.20000000 534.32688804 0.89701493
17.30000000 534.32688804 0.89701493
17.40000000 534.32688804 0.89701493
17.50000000 534.32688804 0.89701493
17.60000000 534.32688804 0.89701493
17.70000000 534.32688804 0.89701493
17.80000000 537.06875164 0.90161790
17.90000000 537.06875164 0.90161790
18.00000000 537.06875164 0.90161790
18.10000000 537.49465428 0.90233290
18.20000000 537.49465428 0.90233290
18.30000000 537.49465428 0.90233290
18.40000000 537.49465428 0.90233290
18.50000000 537.49465428 0.90233290
18.60000000 537.49465428 0.90233290
18.70000000 537.49465428 0.90233290
18.80000000 537.49465428 0.90233290
18.90000000 537.49465428 0.90233290
19.00000000 537.49465428 0.90233290
19.10000000 537.49465428 0.90233290
19.20000000 537.49465428 0.90233290
19.30000000 537.60773108 0.90252273
19.40000000 537.60773108 0.90252273
19.50000000 537.60773108 0.90252273
19.60000000 537.60773108 0.90252273
19.70000000 537.66393844 0.90261709
19.80000000 537.66393844 0.90261709
19.90000000 537.66393844 0.90261709
20.00000000 537.66393844 0.90261709
20.10000000 538.72400924 0.90439671
20.20000000 538.72400924 0.90439671
20.30000000 538.72400924 0.90439671
20.40000000 538.72400924 0.90439671
20.50000000 538.72400924 0.90439671
20.60000000 538.72724836 0.90440214
20.70000000 538.72724836 0.90440214
20.80000000 538.72724836 0.90440214
20.90000000 538.72724836 0.90440214
21.00000000 538.72724836 0.90440214
21.10000000 538.72724836 0.90440214
21.20000000 538.73184356 0.90440986
21.30000000 538.73184356 0.90440986
21.40000000 538.73184356 0.90440986
21.50000000 538.73184356 0.90440986
21.60000000 538.73184356 0.90440986
21.70000000 538.73184356 0.90440986
21.80000000 538.73184356 0.90440986
21.90000000 538.73331100 0.90441232
22.00000000 538.74615292 0.90443388
22.10000000 538.74615292 0.90443388
22.20000000 538.74615292 0.90443388
22.30000000 538.74615292 0.90443388
22.40000000 538.74615292 0.90443388
22.50000000 538.74615292 0.90443388
22.60000000 538.74615292 0.90443388
22.70000000 538.74615292 0.90443388
22.80000000 538.74615292 0.90443388
22.90000000 538.74615292 0.90443388
23.00000000 538.74615292 0.90443388
23.10000000 538.74615292 0.90443388
23.20000000 538.77364348 0.90448003
23.30000000 538.77364348 0.90448003
23.40000000 538.77364348 0.90448003
23.50000000 538.77364348 0.90448003
23.60000000 538.77364348 0.90448003
23.70000000 538.77364348 0.90448003
23.80000000 538.77364348 0.90448003
23.90000000 538.77364348 0.90448003
24.00000000 538.77364348 0.90448003
24.10000000 538.77364348 0.90448003
24.20000000 538.77364348 0.90448003
24.30000000 538.77364348 0.90448003
24.40000000 538.77364348 0.90448003
24.50000000 538.77364348 0.90448003
24.60000000 538.77364348 0.90448003
24.70000000 538.83462748 0.90458241
24.80000000 538.83462748 0.90458241
24.90000000 539.60518028 0.90587599
25.00000000 539.60518028 0.90587599
25.10000000 539.60518028 0.90587599
25.20000000 539.60518028 0.90587599
25.30000000 539.60518028 0.90587599
25.40000000 539.60518028 0.90587599
25.50000000 539.60518028 0.90587599
25.60000000 539.60518028 0.90587599
25.70000000 539.60518028 0.90587599
25.80000000 539.60518028 0.90587599
25.90000000 539.60518028 0.90587599
26.00000000 539.60518028 0.90587599
26.10000000 539.60518028 0.90587599
26.20000000 539.60757620 0.90588002
26.30000000 539.60757620 0.90588002
26.40000000 539.60757620 0.90588002
26.50000000 539.61018356 0.90588439
26.60000000 539.61018356 0.90588439
26.70000000 539.61018356 0.90588439
26.80000000 539.61018356 0.90588439
26.90000000 539.61018356 0.90588439
27.00000000 539.61018356 0.90588439
27.10000000 539.61018356 0.90588439
27.20000000 539.63891532 0.90593263
27.30000000 539.63891532 0.90593263
27.40000000 539.65815028 0.90596492
27.50000000 539.65815028 0.90596492
27.60000000 539.65815028 0.90596492
27.70000000 539.65815028 0.90596492
27.80000000 539.65815028 0.90596492
27.90000000 539.65815028 0.90596492
28.00000000 539.65815028 0.90596492
28.10000000 539.65815028 0.90596492
28.20000000 539.65815028 0.90596492
28.30000000 539.65815028 0.90596492
28.40000000 539.65815028 0.90596492
28.50000000 539.65815028 0.90596492
28.60000000 539.65815028 0.90596492
28.70000000 539.65815028 0.90596492
28.80000000 539.65815028 0.90596492
28.90000000 539.65815028 0.90596492
29.00000000 539.66431004 0.90597526
29.10000000 539.66431004 0.90597526
29.20000000 539.66431004 0.90597526
29.30000000 539.66431004 0.90597526
29.40000000 539.66431004 0.90597526
29.50000000 539.66431004 0.90597526
29.60000000 539.66431004 0.90597526
29.70000000 539.66431004 0.90597526
29.80000000 539.66431004 0.90597526
29.90000000 539.68801260 0.90601505
30.00000000 539.68801260 0.90601505
30.10000000 539.68801260 0.90601505
30.20000000 539.69045756 0.90601916
30.30000000 539.69045756 0.90601916
30.40000000 539.69045756 0.90601916
30.50000000 539.69169340 0.90602123
30.60000000 539.69169340 0.90602123
30.70000000 539.69169340 0.90602123
30.80000000 539.69169340 0.90602123
30.90000000 539.69169340 0.90602123
31.00000000 539.69169340 0.90602123
31.10000000 539.69169340 0.90602123
31.20000000 539.69169340 0.90602123
31.30000000 539.69169340 0.90602123
31.40000000 539.69169340 0.90602123
31.50000000 539.69169340 0.90602123
31.60000000 539.69169340 0.90602123
31.70000000 539.69169340 0.90602123
31.80000000 539.69169340 0.90602123
31.90000000 539.69169340 0.90602123
32.00000000 539.69169340 0.90602123
32.10000000 539.69169340 0.90602123
32.20000000 539.69169340 0.90602123
32.30000000 539.69169340 0.90602123
32.40000000 539.70182236 0.90603823
32.50000000 539.70182236 0.90603823
32.60000000 539.70182236 0.90603823
32.70000000 539.70182236 0.90603823
32.80000000 539.70182236 0.90603823
32.90000000 539.70182236 0.90603823
33.00000000 539.70182236 0.90603823
33.10000000 539.70182236 0.90603823
33.20000000 539.73023516 0.90608593
33.30000000 539.73023516 0.90608593
33.40000000 539.73023516 0.90608593
33.50000000 539.73023516 0.90608593
33.60000000 539.73023516 0.90608593
33.70000000 539.73225644 0.90608933
33.80000000 539.73225644 0.90608933
33.90000000 539.73225644 0.90608933
34.00000000 539.73225644 0.90608933
34.10000000 539.73225644 0.90608933
34.20000000 539.73225644 0.90608933
34.30000000 539.73225644 0.90608933
34.40000000 539.73225644 0.90608933
34.50000000 539.73225644 0.90608933
34.60000000 539.73225644 0.90608933
34.70000000 539.73225644 0.90608933
34.80000000 539.73225644 0.90608933
34.90000000 539.73225644 0.90608933
35.00000000 539.73225644 0.90608933
35.10000000 539.73225644 0.90608933
35.20000000 539.73225644 0.90608933
35.30000000 539.73225644 0.90608933
35.40000000 539.73225644 0.90608933
35.50000000 539.73225644 0.90608933
35.60000000 539.76023460 0.90613630
35.70000000 539.76023460 0.90613630
35.80000000 539.76023460 0.90613630
35.90000000 539.76023460 0.90613630
36.00000000 539.76023460 0.90613630
36.10000000 539.76023460 0.90613630
36.20000000 539.76023460 0.90613630
36.30000000 539.83042036 0.90625412
36.40000000 539.83042036 0.90625412
36.50000000 539.83042036 0.90625412
36.60000000 539.83042036 0.90625412
36.70000000 539.83042036 0.90625412
36.80000000 539.83042036 0.90625412
36.90000000 539.83042036 0.90625412
37.00000000 539.83042036 0.90625412
37.10000000 539.83042036 0.90625412
37.20000000 539.83042036 0.90625412
37.30000000 539.83042036 0.90625412
37.40000000 539.83042036 0.90625412
37.50000000 539.83042036 0.90625412
37.60000000 539.83042036 0.90625412
37.70000000 539.83042036 0.90625412
37.80000000 539.83042036 0.90625412
37.90000000 539.83042036 0.90625412
38.00000000 539.83042036 0.90625412
38.10000000 539.83042036 0.90625412
38.20000000 539.83042036 0.90625412
38.30000000 539.83042036 0.90625412
38.40000000 539.83042036 0.90625412
38.50000000 539.83042036 0.90625412
38.60000000 539.83042036 0.90625412
38.70000000 539.83042036 0.90625412
38.80000000 539.83042036 0.90625412
38.90000000 539.83166972 0.90625622
39.00000000 539.83166972 0.90625622
39.10000000 539.83500796 0.90626182
39.20000000 539.83500796 0.90626182
39.30000000 539.83500796 0.90626182
39.40000000 539.83500796 0.90626182
39.50000000 539.83500796 0.90626182
39.60000000 539.83762956 0.90626622
39.70000000 539.83762956 0.90626622
39.80000000 539.83762956 0.90626622
39.90000000 539.83762956 0.90626622
40.00000000 539.83762956 0.90626622
40.10000000 539.85110404 0.90628885
40.20000000 539.86836548 0.90631782
40.30000000 539.86836548 0.90631782
40.40000000 539.86836548 0.90631782
40.50000000 539.86836548 0.90631782
40.60000000 539.86836548 0.90631782
40.70000000 539.86836548 0.90631782
40.80000000 539.86836548 0.90631782
40.90000000 539.88456252 0.90634501
41.00000000 539.88456252 0.90634501
41.10000000 539.88456252 0.90634501
41.20000000 539.88456252 0.90634501
41.30000000 539.88456252 0.90634501
41.40000000 539.99743452 0.90653450
41.50000000 540.02790476 0.90658565
41.60000000 540.02790476 0.90658565
41.70000000 540.02790476 0.90658565
41.80000000 540.02872028 0.90658702
41.90000000 540.03010884 0.90658935
42.00000000 540.03010884 0.90658935
42.10000000 540.03010884 0.90658935
42.20000000 540.03010884 0.90658935
42.30000000 540.03010884 0.90658935
42.40000000 540.03010884 0.90658935
42.50000000 540.03010884 0.90658935
42.60000000 540.03010884 0.90658935
42.70000000 540.03010884 0.90658935
42.80000000 540.03309100 0.90659436
42.90000000 540.04853804 0.90662029
43.00000000 540.04853804 0.90662029
43.10000000 540.04853804 0.90662029
43.20000000 540.04853804 0.90662029
43.30000000 540.04853804 0.90662029
43.40000000 540.04853804 0.90662029
43.50000000 540.04853804 0.90662029
43.60000000 540.04853804 0.90662029
43.70000000 540.04853804 0.90662029
43.80000000 540.04853804 0.90662029
43.90000000 540.04853804 0.90662029
44.00000000 540.04853804 0.90662029
44.10000000 540.05269916 0.90662728
44.20000000 540.06390892 0.90664610
44.30000000 540.06390892 0.90664610
44.40000000 540.06390892 0.90664610
44.50000000 540.06390892 0.90664610
44.60000000 540.08032788 0.90667366
44.70000000 540.08383308 0.90667955
44.80000000 540.08383308 0.90667955
44.90000000 540.10189588 0.90670987
45.00000000 540.10189588 0.90670987
45.10000000 540.10189588 0.90670987
45.20000000 540.10189588 0.90670987
45.30000000 540.11330068 0.90672901
45.40000000 540.11330068 0.90672901
45.50000000 540.11330068 0.90672901
45.60000000 540.11330068 0.90672901
45.70000000 540.11556136 0.90673281
45.80000000 540.11930376 0.90673909
45.90000000 540.16685288 0.90681892
46.00000000 540.17442772 0.90683163
46.10000000 540.17442772 0.90683163
46.20000000 540.17442772 0.90683163
46.30000000 540.17684660 0.90683569
46.40000000 540.17684660 0.90683569
46.50000000 540.22484996 0.90691628
46.60000000 540.22484996 0.90691628
46.70000000 540.24666892 0.90695291
46.80000000 540.24666892 0.90695291
46.90000000 540.25594396 0.90696848
47.00000000 540.28325196 0.90701432
47.10000000 540.28325196 0.90701432
47.20000000 540.28552388 0.90701814
47.30000000 540.28552388 0.90701814
47.40000000 540.32303388 0.90708111
47.50000000 540.32420780 0.90708308
47.60000000 540.32663060 0.90708715
47.70000000 540.32663060 0.90708715
47.80000000 540.33419764 0.90709985
47.90000000 540.33419764 0.90709985
48.00000000 540.33813080 0.90710645
48.10000000 540.33813080 0.90710645
48.20000000 540.40046384 0.90721110
48.30000000 540.40046384 0.90721110
48.40000000 540.40046384 0.90721110
48.50000000 540.40046384 0.90721110
48.60000000 540.40046384 0.90721110
48.70000000 540.40046384 0.90721110
48.80000000 540.40046384 0.90721110
48.90000000 540.40046384 0.90721110
49.00000000 540.40046384 0.90721110
49.10000000 540.40046384 0.90721110
49.20000000 540.40046384 0.90721110
49.30000000 540.48155344 0.90734723
49.40000000 540.48155344 0.90734723
49.50000000 540.48155344 0.90734723
49.60000000 540.48155344 0.90734723
49.70000000 540.48155344 0.90734723
49.80000000 540.48155344 0.90734723
49.90000000 540.48155344 0.90734723
50.00000000 540.48155344 0.90734723
50.10000000 540.48155344 0.90734723
50.20000000 540.48155344 0.90734723
50.30000000 540.48155344 0.90734723
50.40000000 540.48499504 0.90735301
50.50000000 540.48499504 0.90735301
50.60000000 540.48499504 0.90735301
50.70000000 540.48499504 0.90735301
50.80000000 540.48499504 0.90735301
50.90000000 540.48499504 0.90735301
51.00000000 540.48499504 0.90735301
51.10000000 540.48499504 0.90735301
51.20000000 540.48499504 0.90735301
51.30000000 540.48499504 0.90735301
51.40000000 540.48499504 0.90735301
51.50000000 540.48499504 0.90735301
51.60000000 540.48499504 0.90735301
51.70000000 540.53456592 0.90743622
51.80000000 540.53456592 0.90743622
51.90000000 540.62739624 0.90759207
52.00000000 540.62739624 0.90759207
52.10000000 540.62739624 0.90759207
52.20000000 540.62739624 0.90759207
52.30000000 540.62739624 0.90759207
52.40000000 540.62739624 0.90759207
52.50000000 540.62739624 0.90759207
52.60000000 540.62739624 0.90759207
52.70000000 540.62739624 0.90759207
52.80000000 540.64342856 0.90761898
52.90000000 540.64342856 0.90761898
53.00000000 540.64405380 0.90762003
53.10000000 540.64405380 0.90762003
53.20000000 540.67047012 0.90766438
53.30000000 540.67047012 0.90766438
53.40000000 540.67047012 0.90766438
53.50000000 540.67047012 0.90766438
53.60000000 540.67047012 0.90766438
53.70000000 540.67047012 0.90766438
53.80000000 540.67047012 0.90766438
53.90000000 540.67047012 0.90766438
54.00000000 540.67423236 0.90767069
54.10000000 540.85657428 0.90797680
54.20000000 540.85657428 0.90797680
54.30000000 540.85657428 0.90797680
54.40000000 540.85657428 0.90797680
54.50000000 540.85657428 0.90797680
54.60000000 540.85657428 0.90797680
54.70000000 540.85657428 0.90797680
54.80000000 540.85657428 0.90797680
54.90000000 540.85657428 0.90797680
55.00000000 540.85657428 0.90797680
55.10000000 540.85657428 0.90797680
55.20000000 540.85657428 0.90797680
55.30000000 540.85657428 0.90797680
55.40000000 540.85657428 0.90797680
55.50000000 540.85657428 0.90797680
55.60000000 540.85657428 0.90797680
55.70000000 540.85657428 0.90797680
55.80000000 540.85657428 0.90797680
55.90000000 540.85657428 0.90797680
56.00000000 540.85657428 0.90797680
56.10000000 540.85657428 0.90797680
56.20000000 540.85657428 0.90797680
56.30000000 540.85657428 0.90797680
56.40000000 540.85657428 0.90797680
56.50000000 540.85657428 0.90797680
56.60000000 540.85657428 0.90797680
56.70000000 540.85657428 0.90797680
56.80000000 540.85657428 0.90797680
56.90000000 540.85657428 0.90797680
57.00000000 540.85657428 0.90797680
57.10000000 540.85657428 0.90797680
57.20000000 540.85657428 0.90797680
57.30000000 540.85657428 0.90797680
57.40000000 540.85657428 0.90797680
57.50000000 540.85657428 0.90797680
57.60000000 540.85657428 0.90797680
57.70000000 540.85657428 0.90797680
57.80000000 540.85657428 0.90797680
57.90000000 540.85657428 0.90797680
58.00000000 540.85657428 0.90797680
58.10000000 540.85657428 0.90797680
58.20000000 540.85657428 0.90797680
58.30000000 540.85657428 0.90797680
58.40000000 540.85657428 0.90797680
58.50000000 540.85657428 0.90797680
58.60000000 540.85657428 0.90797680
58.70000000 540.85657428 0.90797680
58.80000000 540.85657428 0.90797680
58.90000000 540.85657428 0.90797680
59.00000000 540.86646572 0.90799341
59.10000000 540.86646572 0.90799341
59.20000000 540.86646572 0.90799341
59.30000000 540.86646572 0.90799341
59.40000000 540.86646572 0.90799341
59.50000000 540.86646572 0.90799341
59.60000000 540.86646572 0.90799341
59.70000000 540.86646572 0.90799341
59.80000000 540.86646572 0.90799341
59.90000000 540.86646572 0.90799341
60.00000000 540.86646572 0.90799341
60.10000000 540.86646572 0.90799341
60.20000000 540.86646572 0.90799341
60.30000000 540.86646572 0.90799341
60.40000000 540.89280860 0.90803763
60.50000000 540.89280860 0.90803763
60.60000000 540.89280860 0.90803763
60.70000000 540.89280860 0.90803763
60.80000000 540.89280860 0.90803763
60.90000000 540.89280860 0.90803763
61.00000000 540.89280860 0.90803763
61.10000000 540.89280860 0.90803763
61.20000000 540.89280860 0.90803763
61.30000000 540.89280860 0.90803763
61.40000000 540.89280860 0.90803763
61.50000000 540.89280860 0.90803763
61.60000000 540.89280860 0.90803763
61.70000000 540.89280860 0.90803763
61.80000000 540.89589260 0.90804281
61.90000000 540.89589260 0.90804281
62.00000000 540.89968692 0.90804918
62.10000000 540.90689908 0.90806129
62.20000000 540.90689908 0.90806129
62.30000000 540.90689908 0.90806129
62.40000000 540.90689908 0.90806129
62.50000000 540.90689908 0.90806129
62.60000000 540.90689908 0.90806129
62.70000000 540.90689908 0.90806129
62.80000000 540.90689908 0.90806129
62.90000000 540.90689908 0.90806129
63.00000000 540.90689908 0.90806129
63.10000000 540.90689908 0.90806129
63.20000000 540.90689908 0.90806129
63.30000000 540.90689908 0.90806129
63.40000000 540.90689908 0.90806129
63.50000000 540.90689908 0.90806129
63.60000000 540.90689908 0.90806129
63.70000000 540.90689908 0.90806129
63.80000000 540.90689908 0.90806129
63.90000000 540.90689908 0.90806129
64.00000000 540.90808100 0.90806327
64.10000000 540.90808100 0.90806327
64.20000000 540.90808100 0.90806327
64.30000000 540.90808100 0.90806327
64.40000000 540.90808100 0.90806327
64.50000000 540.90808100 0.90806327
64.60000000 540.90808100 0.90806327
64.70000000 540.90808100 0.90806327
64.80000000 540.90808100 0.90806327
64.90000000 540.91763676 0.90807931
65.00000000 540.91763676 0.90807931
65.10000000 540.91763676 0.90807931
65.20000000 540.91763676 0.90807931
65.30000000 540.91763676 0.90807931
65.40000000 540.91763676 0.90807931
65.50000000 541.03674276 0.90827927
65.60000000 541.03674276 0.90827927
65.70000000 541.03674276 0.90827927
65.80000000 541.03674276 0.90827927
65.90000000 541.03674276 0.90827927
66.00000000 541.03674276 0.90827927
66.10000000 541.03674276 0.90827927
66.20000000 541.03766044 0.90828081
66.30000000 541.03766044 0.90828081
66.40000000 541.03766044 0.90828081
66.50000000 541.03766044 0.90828081
66.60000000 541.03766044 0.90828081
66.70000000 541.03766044 0.90828081
66.80000000 541.03766044 0.90828081
66.90000000 541.03766044 0.90828081
67.00000000 541.03766044 0.90828081
67.10000000 541.03766044 0.90828081
67.20000000 541.03766044 0.90828081
67.30000000 541.03766044 0.90828081
67.40000000 541.03766044 0.90828081
67.50000000 541.04166460 0.90828753
67.60000000 541.04166460 0.90828753
67.70000000 541.04166460 0.90828753
67.80000000 541.04166460 0.90828753
67.90000000 541.04166460 0.90828753
68.00000000 541.04166460 0.90828753
68.10000000 541.04166460 0.90828753
68.20000000 541.04166460 0.90828753
68.30000000 541.04166460 0.90828753
68.40000000 541.04166460 0.90828753
68.50000000 541.04166460 0.90828753
68.60000000 541.04166460 0.90828753
68.70000000 541.04166460 0.90828753
68.80000000 541.04166460 0.90828753
68.90000000 541.04166460 0.90828753
69.00000000 541.04363996 0.90829085
69.10000000 541.04363996 0.90829085
69.20000000 541.04363996 0.90829085
69.30000000 541.07307372 0.90834026
69.40000000 541.07307372 0.90834026
69.50000000 541.07307372 0.90834026
69.60000000 541.07307372 0.90834026
69.70000000 541.07307372 0.90834026
69.80000000 541.07307372 0.90834026
69.90000000 541.07307372 0.90834026
70.00000000 541.07348796 0.90834095
70.10000000 541.07348796 0.90834095
70.20000000 541.07348796 0.90834095
70.30000000 541.07348796 0.90834095
70.40000000 541.07348796 0.90834095
70.50000000 541.07348796 0.90834095
70.60000000 541.07348796 0.90834095
70.70000000 541.07348796 0.90834095
70.80000000 541.07348796 0.90834095
70.90000000 541.07348796 0.90834095
71.00000000 541.07348796 0.90834095
71.10000000 541.07348796 0.90834095
71.20000000 541.07348796 0.90834095
71.30000000 541.07348796 0.90834095
71.40000000 541.07348796 0.90834095
71.50000000 541.07348796 0.90834095
71.60000000 541.07348796 0.90834095
71.70000000 541.07348796 0.90834095
71.80000000 541.07348796 0.90834095
71.90000000 541.07348796 0.90834095
72.00000000 541.07583260 0.90834489
72.10000000 541.07583260 0.90834489
72.20000000 541.07776188 0.90834813
72.30000000 541.07776188 0.90834813
72.40000000 541.07776188 0.90834813
72.50000000 541.07776188 0.90834813
72.60000000 541.07776188 0.90834813
72.70000000 541.07776188 0.90834813
72.80000000 545.07694256 0.91506186
72.90000000 545.07694256 0.91506186
73.00000000 545.07694256 0.91506186
73.10000000 545.07694256 0.91506186
73.20000000 545.07694256 0.91506186
73.30000000 545.07694256 0.91506186
73.40000000 545.07694256 0.91506186
73.50000000 545.07694256 0.91506186
73.60000000 545.07694256 0.91506186
73.70000000 561.07283248 0.94191536
73.80000000 561.07283248 0.94191536
73.90000000 561.07283248 0.94191536
74.00000000 561.07283248 0.94191536
74.10000000 561.07283248 0.94191536
74.20000000 561.07283248 0.94191536
74.30000000 561.07283248 0.94191536
74.40000000 561.07283248 0.94191536
74.50000000 561.07283248 0.94191536
74.60000000 569.07019072 0.95534113
74.70000000 569.07019072 0.95534113
74.80000000 569.07019072 0.95534113
74.90000000 569.07019072 0.95534113
75.00000000 569.07019072 0.95534113
75.10000000 569.07019072 0.95534113
75.20000000 569.07019072 0.95534113
75.30000000 569.07118920 0.95534281
75.40000000 569.07118920 0.95534281
75.50000000 569.07118920 0.95534281
75.60000000 569.07118920 0.95534281
75.70000000 569.07118920 0.95534281
75.80000000 569.07118920 0.95534281
75.90000000 569.07118920 0.95534281
76.00000000 569.07118920 0.95534281
76.10000000 569.07118920 0.95534281
76.20000000 569.07118920 0.95534281
76.30000000 569.07118920 0.95534281
76.40000000 569.07118920 0.95534281
76.50000000 577.06634736 0.96876489
76.60000000 577.06634736 0.96876489
76.70000000 577.06809432 0.96876782
76.80000000 577.06809432 0.96876782
76.90000000 577.06809432 0.96876782
77.00000000 577.06809432 0.96876782
77.10000000 577.06809432 0.96876782
77.20000000 577.06809432 0.96876782
77.30000000 577.06809432 0.96876782
77.40000000 577.06809432 0.96876782
77.50000000 577.06809432 0.96876782
77.60000000 585.06101984 0.98218615
77.70000000 585.06101984 0.98218615
77.80000000 585.06330512 0.98218998
77.90000000 585.07461880 0.98220898
78.00000000 585.07461880 0.98220898
78.10000000 585.07461880 0.98220898
78.20000000 585.07461880 0.98220898
78.30000000 585.07461880 0.98220898
78.40000000 585.07461880 0.98220898
78.50000000 586.84506760 0.98518116
78.60000000 586.84506760 0.98518116
78.70000000 586.84506760 0.98518116
78.80000000 586.84506760 0.98518116
78.90000000 586.84506760 0.98518116
79.00000000 586.84506760 0.98518116
79.10000000 586.84506760 0.98518116
79.20000000 586.84506760 0.98518116
79.30000000 586.84506760 0.98518116
79.40000000 586.84506760 0.98518116
79.50000000 586.84506760 0.98518116
79.60000000 586.84598416 0.98518270
79.70000000 586.84598416 0.98518270
79.80000000 586.84598416 0.98518270
79.90000000 586.84598416 0.98518270
80.00000000 586.84927672 0.98518823
80.10000000 586.85767608 0.98520233
80.20000000 586.85767608 0.98520233
80.30000000 586.85767608 0.98520233
80.40000000 586.85767608 0.98520233
80.50000000 586.85767608 0.98520233
80.60000000 586.85767608 0.98520233
80.70000000 586.86007424 0.98520636
80.80000000 586.86007424 0.98520636
80.90000000 586.86007424 0.98520636
81.00000000 586.86007424 0.98520636
81.10000000 586.86007424 0.98520636
81.20000000 586.86007424 0.98520636
81.30000000 586.86007424 0.98520636
81.40000000 586.86007424 0.98520636
81.50000000 586.86007424 0.98520636
81.60000000 586.86007424 0.98520636
81.70000000 586.86007424 0.98520636
81.80000000 586.90871672 0.98528802
81.90000000 586.90871672 0.98528802
82.00000000 586.91002096 0.98529021
82.10000000 586.91634200 0.98530082
82.20000000 586.91634200 0.98530082
82.30000000 586.91634200 0.98530082
82.40000000 586.91634200 0.98530082
82.50000000 586.91634200 0.98530082
82.60000000 586.91634200 0.98530082
82.70000000 586.91634200 0.98530082
82.80000000 586.91634200 0.98530082
82.90000000 586.91634200 0.98530082
83.00000000 586.91634200 0.98530082
83.10000000 586.91634200 0.98530082
83.20000000 586.91634200 0.98530082
83.30000000 586.91634200 0.98530082
83.40000000 586.95949096 0.98537325
83.50000000 594.77891944 0.99850032
83.60000000 594.77891944 0.99850032
83.70000000 594.78230408 0.99850600
83.80000000 594.79065784 0.99852003
83.90000000 594.79065784 0.99852003
84.00000000 594.79547760 0.99852812
84.10000000 594.79547760 0.99852812
84.20000000 594.79547760 0.99852812
84.30000000 594.79547760 0.99852812
84.40000000 594.79547760 0.99852812
84.50000000 594.79547760 0.99852812
84.60000000 594.79547760 0.99852812
84.70000000 594.79547760 0.99852812
84.80000000 594.79547760 0.99852812
84.90000000 594.79547760 0.99852812
85.00000000 594.79547760 0.99852812
85.10000000 594.79547760 0.99852812
85.20000000 594.80124712 0.99853780
85.30000000 594.80124712 0.99853780
85.40000000 594.80124712 0.99853780
85.50000000 594.80124712 0.99853780
85.60000000 594.80124712 0.99853780
85.70000000 594.80124712 0.99853780
85.80000000 594.80124712 0.99853780
85.90000000 594.80124712 0.99853780
86.00000000 594.80124712 0.99853780
86.10000000 594.80124712 0.99853780
86.20000000 594.80124712 0.99853780
86.30000000 594.80124712 0.99853780
86.40000000 594.80124712 0.99853780
86.50000000 594.80124712 0.99853780
86.60000000 594.80124712 0.99853780
86.70000000 594.80124712 0.99853780
86.80000000 594.80124712 0.99853780
86.90000000 595.53631840 0.99977182
87.00000000 595.53734960 0.99977355
87.10000000 595.53734960 0.99977355
87.20000000 595.53734960 0.99977355
87.30000000 595.53734960 0.99977355
87.40000000 595.54025512 0.99977843
87.50000000 595.54025512 0.99977843
87.60000000 595.54025512 0.99977843
87.70000000 595.54025512 0.99977843
87.80000000 595.54025512 0.99977843
87.90000000 595.54025512 0.99977843
88.00000000 595.54025512 0.99977843
88.10000000 595.54025512 0.99977843
88.20000000 595.54025512 0.99977843
88.30000000 595.54025512 0.99977843
88.40000000 595.54025512 0.99977843
88.50000000 595.54025512 0.99977843
88.60000000 595.54025512 0.99977843
88.70000000 595.54025512 0.99977843
88.80000000 595.54025512 0.99977843
88.90000000 595.54025512 0.99977843
89.00000000 595.54025512 0.99977843
89.10000000 595.54025512 0.99977843
89.20000000 595.54025512 0.99977843
89.30000000 595.54025512 0.99977843
89.40000000 595.54025512 0.99977843
89.50000000 595.67223720 1.00000000
89.60000000 595.67223720 1.00000000
89.70000000 595.67223720 1.00000000
89.80000000 595.67223720 1.00000000
89.90000000 595.67223720 1.00000000
90.00000000 595.67223720 1.00000000
