# Theta (deg), Enclosed Intensity, Normalized Enclosed Intensity
0.00000000 0.00000000 0.00000000
0.10000000 0.00000000 0.00000000
0.20000000 0.00000000 0.00000000
0.30000000 0.00000000 0.00000000
0.40000000 7.18790832 0.01116270
0.50000000 18.06366232 0.02805256
0.60000000 25.65364376 0.03983966
0.70000000 25.65364376 0.03983966
0.80000000 44.08990400 0.06847086
0.90000000 44.08990400 0.06847086
1.00000000 44.08990400 0.06847086
1.10000000 61.91287052 0.09614962
1.20000000 61.91287052 0.09614962
1.30000000 69.49154156 0.10791916
1.40000000 77.08223604 0.11970738
1.50000000 77.08223604 0.11970738
1.60000000 77.08223604 0.11970738
1.70000000 77.08223604 0.11970738
1.80000000 77.08223604 0.11970738
1.90000000 91.99109132 0.14286057
2.00000000 91.99109132 0.14286057
2.10000000 95.78598020 0.14875397
2.20000000 118.27685196 0.18368191
2.30000000 125.13558988 0.19433341
2.40000000 125.13558988 0.19433341
2.50000000 132.53229404 0.20582036
2.60000000 132.53229404 0.20582036
2.70000000 140.12016716 0.21760420
2.80000000 154.96080668 0.24065145
2.90000000 162.50240284 0.25236342
3.00000000 162.50240284 0.25236342
3.10000000 169.26516540 0.26286587
3.20000000 169.26516540 0.26286587
3.30000000 169.26516540 0.26286587
3.40000000 169.26516540 0.26286587
3.50000000 176.84937788 0.27464402
3.60000000 176.84937788 0.27464402
3.70000000 176.84937788 0.27464402
3.80000000 181.82454316 0.28237037
3.90000000 181.82454316 0.28237037
4.00000000 181.82454316 0.28237037
4.10000000 181.82454316 0.28237037
4.20000000 181.82454316 0.28237037
4.30000000 196.82036076 0.30565862
4.40000000 196.82036076 0.30565862
4.50000000 196.82036076 0.30565862
4.60000000 196.82036076 0.30565862
4.70000000 209.86711068 0.32591999
4.80000000 217.34389588 0.33753131
4.90000000 217.34389588 0.33753131
5.00000000 217.34389588 0.33753131
5.10000000 217.34389588 0.33753131
5.20000000 217.34389588 0.33753131
5.30000000 220.55397572 0.34251651
5.40000000 231.89750348 0.36013281
5.50000000 231.89750348 0.36013281
5.60000000 231.89750348 0.36013281
5.70000000 231.89750348 0.36013281
5.80000000 231.89750348 0.36013281
5.90000000 231.89750348 0.36013281
6.00000000 231.89750348 0.36013281
6.10000000 239.31572236 0.37165318
6.20000000 239.31572236 0.37165318
6.30000000 239.31572236 0.37165318
6.40000000 239.31572236 0.37165318
6.50000000 239.31572236 0.37165318
6.60000000 239.31572236 0.37165318
6.70000000 239.31572236 0.37165318
6.80000000 254.21980980 0.39479897
6.90000000 259.94659848 0.40369257
7.00000000 259.94659848 0.40369257
7.10000000 259.94659848 0.40369257
7.20000000 259.94659848 0.40369257
7.30000000 259.94659848 0.40369257
7.40000000 259.94659848 0.40369257
7.50000000 259.94659848 0.40369257
7.60000000 259.94659848 0.40369257
7.70000000 259.94659848 0.40369257
7.80000000 259.94659848 0.40369257
7.90000000 259.94659848 0.40369257
8.00000000 259.94659848 0.40369257
8.10000000 259.94659848 0.40369257
8.20000000 259.94659848 0.40369257
8.30000000 259.94659848 0.40369257
8.40000000 259.94659848 0.40369257
8.50000000 259.94659848 0.40369257
8.60000000 267.19884744 0.41495519
8.70000000 267.19884744 0.41495519
8.80000000 267.19884744 0.41495519
8.90000000 267.19884744 0.41495519
9.00000000 267.19884744 0.41495519
9.10000000 267.19884744 0.41495519
9.20000000 278.65333592 0.43274381
9.30000000 278.65333592 0.43274381
9.40000000 278.65333592 0.43274381
9.50000000 283.40231736 0.44011890
9.60000000 283.40231736 0.44011890
9.70000000 290.55737416 0.45123058
9.80000000 290.55737416 0.45123058
9.90000000 290.55737416 0.45123058
10.00000000 290.55737416 0.45123058
10.10000000 290.55737416 0.45123058
10.20000000 290.55737416 0.45123058
10.30000000 290.55737416 0.45123058
10.40000000 290.55737416 0.45123058
10.50000000 295.66523064 0.45916299
10.60000000 303.78674676 0.47177556
10.70000000 303.78674676 0.47177556
10.80000000 303.78674676 0.47177556
10.90000000 303.78674676 0.47177556
11.00000000 310.80397660 0.48267320
11.10000000 310.80397660 0.48267320
11.20000000 310.80397660 0.48267320
11.30000000 310.80397660 0.48267320
11.40000000 310.80397660 0.48267320
11.50000000 310.80397660 0.48267320
11.60000000 310.80397660 0.48267320
11.70000000 310.80397660 0.48267320
11.80000000 310.80397660 0.48267320
11.90000000 310.80397660 0.48267320
12.00000000 310.80397660 0.48267320
12.10000000 316.47886716 0.49148621
12.20000000 316.47886716 0.49148621
12.30000000 321.50421164 0.49929048
12.40000000 321.50421164 0.49929048
12.50000000 324.91046764 0.50458034
12.60000000 324.91046764 0.50458034
12.70000000 336.71132588 0.52290686
12.80000000 336.71132588 0.52290686
12.90000000 336.71132588 0.52290686
13.00000000 336.71132588 0.52290686
13.10000000 343.54246204 0.53351550
13.20000000 343.54246204 0.53351550
13.30000000 349.63841980 0.54298242
13.40000000 349.63841980 0.54298242
13.50000000 349.63841980 0.54298242
13.60000000 349.63841980 0.54298242
13.70000000 349.63841980 0.54298242
13.80000000 355.90477332 0.55271396
13.90000000 355.90477332 0.55271396
14.00000000 355.90477332 0.55271396
14.10000000 355.90477332 0.55271396
14.20000000 355.90477332 0.55271396
14.30000000 360.43711964 0.55975261
14.40000000 373.41612060 0.57990878
14.50000000 373.41612060 0.57990878
14.60000000 373.41612060 0.57990878
14.70000000 373.41612060 0.57990878
14.80000000 373.41612060 0.57990878
14.90000000 373.41612060 0.57990878
15.00000000 373.41612060 0.57990878
15.10000000 373.41612060 0.57990878
15.20000000 373.41612060 0.57990878
15.30000000 373.41612060 0.57990878
15.40000000 373.41612060 0.57990878
15.50000000 373.41612060 0.57990878
15.60000000 373.41612060 0.57990878
15.70000000 373.41612060 0.57990878
15.80000000 373.41612060 0.57990878
15.90000000 373.41612060 0.57990878
16.00000000 373.41612060 0.57990878
16.10000000 373.41612060 0.57990878
16.20000000 373.41612060 0.57990878
16.30000000 373.41612060 0.57990878
16.40000000 373.41612060 0.57990878
16.50000000 373.41612060 0.57990878
16.60000000 373.41612060 0.57990878
16.70000000 373.41612060 0.57990878
16.80000000 373.41612060 0.57990878
16.90000000 373.41612060 0.57990878
17.00000000 373.41612060 0.57990878
17.10000000 373.41612060 0.57990878
17.20000000 373.41612060 0.57990878
17.30000000 373.41612060 0.57990878
17.40000000 373.41612060 0.57990878
17.50000000 373.41612060 0.57990878
17.60000000 373.41612060 0.57990878
17.70000000 373.41612060 0.57990878
17.80000000 373.41612060 0.57990878
17.90000000 373.41612060 0.57990878
18.00000000 373.86544940 0.58060658
18.10000000 373.86544940 0.58060658
18.20000000 373.86544940 0.58060658
18.30000000 373.86544940 0.58060658
18.40000000 373.86544940 0.58060658
18.50000000 373.86544940 0.58060658
18.60000000 373.86544940 0.58060658
18.70000000 373.86544940 0.58060658
18.80000000 373.86544940 0.58060658
18.90000000 373.86544940 0.58060658
19.00000000 373.86544940 0.58060658
19.10000000 373.86544940 0.58060658
19.20000000 373.86544940 0.58060658
19.30000000 373.86544940 0.58060658
19.40000000 373.86544940 0.58060658
19.50000000 373.86544940 0.58060658
19.60000000 376.90830596 0.58533208
19.70000000 376.90830596 0.58533208
19.80000000 376.90830596 0.58533208
19.90000000 376.90830596 0.58533208
20.00000000 376.90830596 0.58533208
20.10000000 376.90830596 0.58533208
20.20000000 376.90830596 0.58533208
20.30000000 376.90830596 0.58533208
20.40000000 376.90830596 0.58533208
20.50000000 376.90830596 0.58533208
20.60000000 376.90830596 0.58533208
20.70000000 376.90830596 0.58533208
20.80000000 376.90830596 0.58533208
20.90000000 376.90830596 0.58533208
21.00000000 376.90830596 0.58533208
21.10000000 376.90830596 0.58533208
21.20000000 376.90830596 0.58533208
21.30000000 376.90830596 0.58533208
21.40000000 376.90830596 0.58533208
21.50000000 376.90830596 0.58533208
21.60000000 376.90830596 0.58533208
21.70000000 376.90830596 0.58533208
21.80000000 376.90830596 0.58533208
21.90000000 376.90830596 0.58533208
22.00000000 376.90830596 0.58533208
22.10000000 376.90830596 0.58533208
22.20000000 376.90830596 0.58533208
22.30000000 376.90830596 0.58533208
22.40000000 376.90830596 0.58533208
22.50000000 376.90830596 0.58533208
22.60000000 376.90830596 0.58533208
22.70000000 376.90830596 0.58533208
22.80000000 376.90830596 0.58533208
22.90000000 376.90830596 0.58533208
23.00000000 376.90830596 0.58533208
23.10000000 376.90830596 0.58533208
23.20000000 376.90830596 0.58533208
23.30000000 376.90830596 0.58533208
23.40000000 376.90830596 0.58533208
23.50000000 376.90830596 0.58533208
23.60000000 378.79462316 0.58826150
23.70000000 378.79462316 0.58826150
23.80000000 378.79462316 0.58826150
23.90000000 378.79462316 0.58826150
24.00000000 378.79462316 0.58826150
24.10000000 378.79462316 0.58826150
24.20000000 378.79462316 0.58826150
24.30000000 378.79462316 0.58826150
24.40000000 378.79462316 0.58826150
24.50000000 378.79462316 0.58826150
24.60000000 378.79462316 0.58826150
24.70000000 378.79462316 0.58826150
24.80000000 378.79462316 0.58826150
24.90000000 378.79462316 0.58826150
25.00000000 378.79462316 0.58826150
25.10000000 378.79462316 0.58826150
25.20000000 378.79462316 0.58826150
25.30000000 378.79462316 0.58826150
25.40000000 378.79462316 0.58826150
25.50000000 378.79462316 0.58826150
25.60000000 378.79462316 0.58826150
25.70000000 378.79462316 0.58826150
25.80000000 378.79462316 0.58826150
25.90000000 378.79462316 0.58826150
26.00000000 378.79462316 0.58826150
26.10000000 378.79462316 0.58826150
26.20000000 378.79462316 0.58826150
26.30000000 378.79462316 0.58826150
26.40000000 381.21370396 0.59201829
26.50000000 381.21370396 0.59201829
26.60000000 381.21370396 0.59201829
26.70000000 381.21370396 0.59201829
26.80000000 381.21370396 0.59201829
26.90000000 381.21370396 0.59201829
27.00000000 381.21370396 0.59201829
27.10000000 381.21370396 0.59201829
27.20000000 381.21370396 0.59201829
27.30000000 381.21370396 0.59201829
27.40000000 381.21370396 0.59201829
27.50000000 381.21370396 0.59201829
27.60000000 381.21370396 0.59201829
27.70000000 381.21370396 0.59201829
27.80000000 381.21370396 0.59201829
27.90000000 381.21370396 0.59201829
28.00000000 381.21370396 0.59201829
28.10000000 381.21370396 0.59201829
28.20000000 381.21370396 0.59201829
28.30000000 381.21370396 0.59201829
28.40000000 381.21370396 0.59201829
28.50000000 381.21370396 0.59201829
28.60000000 381.21370396 0.59201829
28.70000000 381.21370396 0.59201829
28.80000000 381.21370396 0.59201829
28.90000000 381.21370396 0.59201829
29.00000000 381.21370396 0.59201829
29.10000000 381.21370396 0.59201829
29.20000000 381.21370396 0.59201829
29.30000000 381.21370396 0.59201829
29.40000000 381.21370396 0.59201829
29.50000000 381.21370396 0.59201829
29.60000000 381.21370396 0.59201829
29.70000000 381.21370396 0.59201829
29.80000000 381.21370396 0.59201829
29.90000000 381.21370396 0.59201829
30.00000000 381.21370396 0.59201829
30.10000000 381.21370396 0.59201829
30.20000000 381.21370396 0.59201829
30.30000000 381.21370396 0.59201829
30.40000000 381.21370396 0.59201829
30.50000000 381.21370396 0.59201829
30.60000000 381.21370396 0.59201829
30.70000000 381.21370396 0.59201829
30.80000000 381.21370396 0.59201829
30.90000000 381.21370396 0.59201829
31.00000000 381.21886668 0.59202631
31.10000000 381.21886668 0.59202631
31.20000000 381.21886668 0.59202631
31.30000000 381.21886668 0.59202631
31.40000000 381.21886668 0.59202631
31.50000000 381.21886668 0.59202631
31.60000000 381.21886668 0.59202631
31.70000000 381.21886668 0.59202631
31.80000000 381.21886668 0.59202631
31.90000000 381.21886668 0.59202631
32.00000000 381.70657380 0.59278371
32.10000000 381.70657380 0.59278371
32.20000000 381.70657380 0.59278371
32.30000000 381.70657380 0.59278371
32.40000000 381.70657380 0.59278371
32.50000000 381.70657380 0.59278371
32.60000000 381.70657380 0.59278371
32.70000000 381.70657380 0.59278371
32.80000000 381.70657380 0.59278371
32.90000000 381.70657380 0.59278371
33.00000000 381.70657380 0.59278371
33.10000000 381.70657380 0.59278371
33.20000000 381.70657380 0.59278371
33.30000000 381.70657380 0.59278371
33.40000000 381.70657380 0.59278371
33.50000000 381.70657380 0.59278371
33.60000000 381.70657380 0.59278371
33.70000000 381.70657380 0.59278371
33.80000000 381.70657380 0.59278371
33.90000000 381.70657380 0.59278371
34.00000000 381.70657380 0.59278371
34.10000000 381.70657380 0.59278371
34.20000000 381.70657380 0.59278371
34.30000000 381.70657380 0.59278371
34.40000000 381.70657380 0.59278371
34.50000000 381.70657380 0.59278371
34.60000000 381.70657380 0.59278371
34.70000000 381.70657380 0.59278371
34.80000000 381.70657380 0.59278371
34.90000000 381.70657380 0.59278371
35.00000000 381.70657380 0.59278371
35.10000000 381.70657380 0.59278371
35.20000000 381.70657380 0.59278371
35.30000000 381.70657380 0.59278371
35.40000000 381.70657380 0.59278371
35.50000000 381.70657380 0.59278371
35.60000000 381.70657380 0.59278371
35.70000000 381.70657380 0.59278371
35.80000000 381.70657380 0.59278371
35.90000000 381.70657380 0.59278371
36.00000000 381.70657380 0.59278371
36.10000000 381.70657380 0.59278371
36.20000000 381.70657380 0.59278371
36.30000000 381.70657380 0.59278371
36.40000000 381.70657380 0.59278371
36.50000000 381.70657380 0.59278371
36.60000000 381.70657380 0.59278371
36.70000000 381.70657380 0.59278371
36.80000000 381.70657380 0.59278371
36.90000000 381.70657380 0.59278371
37.00000000 381.70657380 0.59278371
37.10000000 381.70657380 0.59278371
37.20000000 381.70657380 0.59278371
37.30000000 381.70657380 0.59278371
37.40000000 381.70657380 0.59278371
37.50000000 381.70657380 0.59278371
37.60000000 381.70657380 0.59278371
37.70000000 381.92837660 0.59312816
37.80000000 381.92837660 0.59312816
37.90000000 381.92837660 0.59312816
38.00000000 381.92837660 0.59312816
38.10000000 381.92837660 0.59312816
38.20000000 381.92837660 0.59312816
38.30000000 381.92837660 0.59312816
38.40000000 381.92837660 0.59312816
38.50000000 381.92837660 0.59312816
38.60000000 381.92837660 0.59312816
38.70000000 381.92837660 0.59312816
38.80000000 381.92837660 0.59312816
38.90000000 381.92837660 0.59312816
39.00000000 381.92837660 0.59312816
39.10000000 381.92837660 0.59312816
39.20000000 381.92837660 0.59312816
39.30000000 381.92837660 0.59312816
39.40000000 381.92837660 0.59312816
39.50000000 381.92837660 0.59312816
39.60000000 381.92837660 0.59312816
39.70000000 381.92837660 0.59312816
39.80000000 381.92837660 0.59312816
39.90000000 381.92837660 0.59312816
40.00000000 381.92837660 0.59312816
40.10000000 381.92837660 0.59312816
40.20000000 381.92837660 0.59312816
40.30000000 381.92837660 0.59312816
40.40000000 381.92837660 0.59312816
40.50000000 381.92837660 0.59312816
40.60000000 381.92837660 0.59312816
40.70000000 381.92837660 0.59312816
40.80000000 381.92837660 0.59312816
40.90000000 381.92837660 0.59312816
41.00000000 381.92837660 0.59312816
41.10000000 381.92837660 0.59312816
41.20000000 381.94763852 0.59315808
41.30000000 381.94763852 0.59315808
41.40000000 381.94763852 0.59315808
41.50000000 381.94763852 0.59315808
41.60000000 381.94763852 0.59315808
41.70000000 381.94763852 0.59315808
41.80000000 381.94763852 0.59315808
41.90000000 381.94763852 0.59315808
42.00000000 381.94763852 0.59315808
42.10000000 381.94763852 0.59315808
42.20000000 381.94763852 0.59315808
42.30000000 381.94763852 0.59315808
42.40000000 381.94763852 0.59315808
42.50000000 381.94763852 0.59315808
42.60000000 381.94763852 0.59315808
42.70000000 381.94763852 0.59315808
42.80000000 381.94763852 0.59315808
42.90000000 381.94763852 0.59315808
43.00000000 381.94763852 0.59315808
43.10000000 381.94763852 0.59315808
43.20000000 381.94763852 0.59315808
43.30000000 381.94763852 0.59315808
43.40000000 381.94763852 0.59315808
43.50000000 381.94763852 0.59315808
43.60000000 381.94763852 0.59315808
43.70000000 381.94763852 0.59315808
43.80000000 381.94763852 0.59315808
43.90000000 381.94763852 0.59315808
44.00000000 381.94763852 0.59315808
44.10000000 381.94763852 0.59315808
44.20000000 381.94763852 0.59315808
44.30000000 381.94763852 0.59315808
44.40000000 381.94763852 0.59315808
44.50000000 381.94763852 0.59315808
44.60000000 381.94763852 0.59315808
44.70000000 381.94763852 0.59315808
44.80000000 381.94763852 0.59315808
44.90000000 381.94763852 0.59315808
45.00000000 381.94763852 0.59315808
45.10000000 381.94763852 0.59315808
45.20000000 381.94763852 0.59315808
45.30000000 381.94763852 0.59315808
45.40000000 381.94763852 0.59315808
45.50000000 381.94763852 0.59315808
45.60000000 381.94763852 0.59315808
45.70000000 381.94763852 0.59315808
45.80000000 381.94763852 0.59315808
45.90000000 381.94763852 0.59315808
46.00000000 381.94763852 0.59315808
46.10000000 381.94763852 0.59315808
46.20000000 381.94763852 0.59315808
46.30000000 381.94763852 0.59315808
46.40000000 381.94763852 0.59315808
46.50000000 382.02063112 0.59327143
46.60000000 382.02063112 0.59327143
46.70000000 382.02063112 0.59327143
46.80000000 382.02063112 0.59327143
46.90000000 382.02063112 0.59327143
47.00000000 382.02063112 0.59327143
47.10000000 382.02063112 0.59327143
47.20000000 382.02063112 0.59327143
47.30000000 382.02063112 0.59327143
47.40000000 382.02063112 0.59327143
47.50000000 382.02063112 0.59327143
47.60000000 382.02063112 0.59327143
47.70000000 382.02063112 0.59327143
47.80000000 382.02063112 0.59327143
47.90000000 382.02063112 0.59327143
48.00000000 382.02063112 0.59327143
48.10000000 382.02063112 0.59327143
48.20000000 382.02063112 0.59327143
48.30000000 382.02063112 0.59327143
48.40000000 382.02063112 0.59327143
48.50000000 382.02063112 0.59327143
48.60000000 382.02063112 0.59327143
48.70000000 382.02063112 0.59327143
48.80000000 382.02063112 0.59327143
48.90000000 382.02063112 0.59327143
49.00000000 382.02063112 0.59327143
49.10000000 382.02063112 0.59327143
49.20000000 382.02063112 0.59327143
49.30000000 382.02063112 0.59327143
49.40000000 382.02063112 0.59327143
49.50000000 382.02063112 0.59327143
49.60000000 382.02063112 0.59327143
49.70000000 382.02063112 0.59327143
49.80000000 382.02063112 0.59327143
49.90000000 382.02063112 0.59327143
50.00000000 382.02063112 0.59327143
50.10000000 382.06536032 0.59334090
50.20000000 382.06536032 0.59334090
50.30000000 382.06536032 0.59334090
50.40000000 382.06536032 0.59334090
50.50000000 382.06536032 0.59334090
50.60000000 382.06536032 0.59334090
50.70000000 382.06536032 0.59334090
50.80000000 382.06536032 0.59334090
50.90000000 382.06536032 0.59334090
51.00000000 382.06536032 0.59334090
51.10000000 382.06536032 0.59334090
51.20000000 382.06536032 0.59334090
51.30000000 382.06769352 0.59334452
51.40000000 382.06769352 0.59334452
51.50000000 382.06769352 0.59334452
51.60000000 382.06769352 0.59334452
51.70000000 382.06769352 0.59334452
51.80000000 382.06769352 0.59334452
51.90000000 382.06769352 0.59334452
52.00000000 382.06769352 0.59334452
52.10000000 382.06769352 0.59334452
52.20000000 382.06769352 0.59334452
52.30000000 382.06769352 0.59334452
52.40000000 382.06769352 0.59334452
52.50000000 382.06769352 0.59334452
52.60000000 382.06769352 0.59334452
52.70000000 382.06769352 0.59334452
52.80000000 382.06769352 0.59334452
52.90000000 382.06769352 0.59334452
53.00000000 382.06769352 0.59334452
53.10000000 382.06769352 0.59334452
53.20000000 382.06769352 0.59334452
53.30000000 382.06769352 0.59334452
53.40000000 382.11217512 0.59341360
53.50000000 382.11217512 0.59341360
53.60000000 390.11212392 0.60583738
53.70000000 390.11212392 0.60583738
53.80000000 390.11212392 0.60583738
53.90000000 390.11212392 0.60583738
54.00000000 390.11212392 0.60583738
54.10000000 398.11206968 0.61826116
54.20000000 398.11206968 0.61826116
54.30000000 398.11206968 0.61826116
54.40000000 398.11206968 0.61826116
54.50000000 398.11206968 0.61826116
54.60000000 398.11206968 0.61826116
54.70000000 398.11206968 0.61826116
54.80000000 398.11206968 0.61826116
54.90000000 398.11206968 0.61826116
55.00000000 398.11206968 0.61826116
55.10000000 422.11188608 0.65553246
55.20000000 422.11188608 0.65553246
55.30000000 422.11188608 0.65553246
55.40000000 422.11188608 0.65553246
55.50000000 422.11188608 0.65553246
55.60000000 422.11188608 0.65553246
55.70000000 422.11188608 0.65553246
55.80000000 422.11319336 0.65553449
55.90000000 422.11319336 0.65553449
56.00000000 422.11319336 0.65553449
56.10000000 430.11312392 0.66795824
56.20000000 430.11312392 0.66795824
56.30000000 430.11312392 0.66795824
56.40000000 430.11312392 0.66795824
56.50000000 430.15391656 0.66802159
56.60000000 438.15384240 0.68044534
56.70000000 438.15384240 0.68044534
56.80000000 438.15384240 0.68044534
56.90000000 438.15384240 0.68044534
57.00000000 438.15384240 0.68044534
57.10000000 438.15384240 0.68044534
57.20000000 438.15384240 0.68044534
57.30000000 438.15848728 0.68045255
57.40000000 438.15848728 0.68045255
57.50000000 438.15848728 0.68045255
57.60000000 438.15848728 0.68045255
57.70000000 438.15848728 0.68045255
57.80000000 438.15848728 0.68045255
57.90000000 438.15848728 0.68045255
58.00000000 438.15848728 0.68045255
58.10000000 438.15848728 0.68045255
58.20000000 446.15839576 0.69287627
58.30000000 446.15839576 0.69287627
58.40000000 446.15839576 0.69287627
58.50000000 446.15839576 0.69287627
58.60000000 446.15839576 0.69287627
58.70000000 454.15829720 0.70529998
58.80000000 454.15829720 0.70529998
58.90000000 454.15829720 0.70529998
59.00000000 454.15829720 0.70529998
59.10000000 454.15829720 0.70529998
59.20000000 454.15829720 0.70529998
59.30000000 454.15829720 0.70529998
59.40000000 454.15829720 0.70529998
59.50000000 454.15829720 0.70529998
59.60000000 454.15829720 0.70529998
59.70000000 454.15829720 0.70529998
59.80000000 458.15823968 0.71151182
59.90000000 458.15823968 0.71151182
60.00000000 458.15823968 0.71151182
60.10000000 458.15823968 0.71151182
60.20000000 458.15823968 0.71151182
60.30000000 474.15799008 0.73635916
60.40000000 474.15799008 0.73635916
60.50000000 474.15799008 0.73635916
60.60000000 474.15799008 0.73635916
60.70000000 474.15799008 0.73635916
60.80000000 474.15799008 0.73635916
60.90000000 482.15785440 0.74878281
61.00000000 482.15785440 0.74878281
61.10000000 482.15785440 0.74878281
61.20000000 482.15785440 0.74878281
61.30000000 482.15785440 0.74878281
61.40000000 482.15785440 0.74878281
61.50000000 490.15770640 0.76120644
61.60000000 490.15770640 0.76120644
61.70000000 490.15770640 0.76120644
61.80000000 490.15770640 0.76120644
61.90000000 490.15770640 0.76120644
62.00000000 506.15738272 0.78605366
62.10000000 506.15738272 0.78605366
62.20000000 506.15738272 0.78605366
62.30000000 506.15738272 0.78605366
62.40000000 506.15738272 0.78605366
62.50000000 506.15738272 0.78605366
62.60000000 506.15738272 0.78605366
62.70000000 506.15738272 0.78605366
62.80000000 506.15738272 0.78605366
62.90000000 506.15738272 0.78605366
63.00000000 506.15738272 0.78605366
63.10000000 506.15738272 0.78605366
63.20000000 506.15738272 0.78605366
63.30000000 506.15738272 0.78605366
63.40000000 506.15738272 0.78605366
63.50000000 506.15738272 0.78605366
63.60000000 506.15738272 0.78605366
63.70000000 506.15738272 0.78605366
63.80000000 514.15716664 0.79847719
63.90000000 514.15716664 0.79847719
64.00000000 514.15716664 0.79847719
64.10000000 514.15716664 0.79847719
64.20000000 514.15716664 0.79847719
64.30000000 514.15716664 0.79847719
64.40000000 517.76379448 0.80407822
64.50000000 517.76379448 0.80407822
64.60000000 517.76379448 0.80407822
64.70000000 517.76379448 0.80407822
64.80000000 517.76379448 0.80407822
64.90000000 517.76379448 0.80407822
65.00000000 525.76352744 0.81650166
65.10000000 525.76352744 0.81650166
65.20000000 525.83448424 0.81661186
65.30000000 525.89198736 0.81670116
65.40000000 525.89198736 0.81670116
65.50000000 525.89198736 0.81670116
65.60000000 534.05494780 0.82937810
65.70000000 534.05494780 0.82937810
65.80000000 534.09335284 0.82943774
65.90000000 534.09335284 0.82943774
66.00000000 534.09335284 0.82943774
66.10000000 534.09335284 0.82943774
66.20000000 534.29044724 0.82974382
66.30000000 542.29011092 0.84216716
66.40000000 542.29011092 0.84216716
66.50000000 542.29011092 0.84216716
66.60000000 542.29011092 0.84216716
66.70000000 542.31642060 0.84220802
66.80000000 542.31642060 0.84220802
66.90000000 550.31604004 0.85463129
67.00000000 550.31604004 0.85463129
67.10000000 550.31604004 0.85463129
67.20000000 550.34978660 0.85468370
67.30000000 550.34978660 0.85468370
67.40000000 550.34978660 0.85468370
67.50000000 550.34978660 0.85468370
67.60000000 550.34978660 0.85468370
67.70000000 550.34978660 0.85468370
67.80000000 550.34978660 0.85468370
67.90000000 550.34978660 0.85468370
68.00000000 550.34978660 0.85468370
68.10000000 550.34978660 0.85468370
68.20000000 550.34978660 0.85468370
68.30000000 550.34978660 0.85468370
68.40000000 550.34978660 0.85468370
68.50000000 550.34978660 0.85468370
68.60000000 550.34978660 0.85468370
68.70000000 550.34978660 0.85468370
68.80000000 550.34978660 0.85468370
68.90000000 550.34978660 0.85468370
69.00000000 558.34921220 0.86710667
69.10000000 558.34921220 0.86710667
69.20000000 558.34921220 0.86710667
69.30000000 558.34921220 0.86710667
69.40000000 558.34921220 0.86710667
69.50000000 558.34921220 0.86710667
69.60000000 558.34921220 0.86710667
69.70000000 582.34720244 0.90437513
69.80000000 582.34720244 0.90437513
69.90000000 582.34720244 0.90437513
70.00000000 582.36384980 0.90440098
70.10000000 582.36384980 0.90440098
70.20000000 582.36384980 0.90440098
70.30000000 582.36384980 0.90440098
70.40000000 582.36384980 0.90440098
70.50000000 582.36384980 0.90440098
70.60000000 582.36384980 0.90440098
70.70000000 582.36384980 0.90440098
70.80000000 582.50953612 0.90462723
70.90000000 582.50953612 0.90462723
71.00000000 582.50953612 0.90462723
71.10000000 582.50953612 0.90462723
71.20000000 590.50859476 0.91704963
71.30000000 590.50859476 0.91704963
71.40000000 590.50859476 0.91704963
71.50000000 590.50859476 0.91704963
71.60000000 590.51063240 0.91705280
71.70000000 590.51063240 0.91705280
71.80000000 590.51063240 0.91705280
71.90000000 590.51414896 0.91705826
72.00000000 590.51414896 0.91705826
72.10000000 590.78860208 0.91748448
72.20000000 590.78860208 0.91748448
72.30000000 590.78860208 0.91748448
72.40000000 590.78860208 0.91748448
72.50000000 590.78860208 0.91748448
72.60000000 590.78860208 0.91748448
72.70000000 590.78860208 0.91748448
72.80000000 594.78790232 0.92369532
72.90000000 594.78790232 0.92369532
73.00000000 594.78790232 0.92369532
73.10000000 594.78790232 0.92369532
73.20000000 594.78790232 0.92369532
73.30000000 594.79007560 0.92369870
73.40000000 594.79007560 0.92369870
73.50000000 594.79007560 0.92369870
73.60000000 594.79007560 0.92369870
73.70000000 610.78656424 0.94854097
73.80000000 610.78656424 0.94854097
73.90000000 610.78656424 0.94854097
74.00000000 610.78656424 0.94854097
74.10000000 610.78934008 0.94854528
74.20000000 610.78934008 0.94854528
74.30000000 610.78934008 0.94854528
74.40000000 610.78934008 0.94854528
74.50000000 610.78934008 0.94854528
74.60000000 618.78708240 0.96096563
74.70000000 618.78708240 0.96096563
74.80000000 618.85317800 0.96106828
74.90000000 618.88592168 0.96111913
75.00000000 618.88592168 0.96111913
75.10000000 618.93213488 0.96119090
75.20000000 618.93337464 0.96119282
75.30000000 618.93337464 0.96119282
75.40000000 618.93337464 0.96119282
75.50000000 618.93337464 0.96119282
75.60000000 618.93337464 0.96119282
75.70000000 618.93337464 0.96119282
75.80000000 618.93337464 0.96119282
75.90000000 618.93337464 0.96119282
76.00000000 618.93337464 0.96119282
76.10000000 618.93337464 0.96119282
76.20000000 618.93337464 0.96119282
76.30000000 618.93337464 0.96119282
76.40000000 618.93337464 0.96119282
76.50000000 618.93337464 0.96119282
76.60000000 626.92923264 0.97361025
76.70000000 626.93971488 0.97362653
76.80000000 627.27297680 0.97414408
76.90000000 627.27297680 0.97414408
77.00000000 627.37273768 0.97429901
77.10000000 627.37273768 0.97429901
77.20000000 627.37273768 0.97429901
77.30000000 627.37273768 0.97429901
77.40000000 627.37273768 0.97429901
77.50000000 627.37273768 0.97429901
77.60000000 627.37273768 0.97429901
77.70000000 635.36668104 0.98671346
77.80000000 635.36668104 0.98671346
77.90000000 635.36668104 0.98671346
78.00000000 635.36668104 0.98671346
78.10000000 635.36668104 0.98671346
78.20000000 635.36990064 0.98671846
78.30000000 635.36990064 0.98671846
78.40000000 635.37348480 0.98672403
78.50000000 635.37348480 0.98672403
78.60000000 635.37348480 0.98672403
78.70000000 635.37348480 0.98672403
78.80000000 635.37348480 0.98672403
78.90000000 635.37605200 0.98672802
79.00000000 635.37605200 0.98672802
79.10000000 635.37605200 0.98672802
79.20000000 635.37605200 0.98672802
79.30000000 635.51413104 0.98694245
79.40000000 635.51413104 0.98694245
79.50000000 635.51413104 0.98694245
79.60000000 635.85622560 0.98747372
79.70000000 635.85622560 0.98747372
79.80000000 635.85622560 0.98747372
79.90000000 635.85622560 0.98747372
80.00000000 635.85622560 0.98747372
80.10000000 635.85622560 0.98747372
80.20000000 635.85622560 0.98747372
80.30000000 635.85622560 0.98747372
80.40000000 635.85768896 0.98747599
80.50000000 635.85768896 0.98747599
80.60000000 635.85768896 0.98747599
80.70000000 635.86105616 0.98748122
80.80000000 635.86105616 0.98748122
80.90000000 635.86105616 0.98748122
81.00000000 635.86105616 0.98748122
81.10000000 635.86105616 0.98748122
81.20000000 635.86105616 0.98748122
81.30000000 635.86105616 0.98748122
81.40000000 635.86105616 0.98748122
81.50000000 635.86105616 0.98748122
81.60000000 635.86243944 0.98748337
81.70000000 635.86243944 0.98748337
81.80000000 635.86243944 0.98748337
81.90000000 635.86243944 0.98748337
82.00000000 635.86243944 0.98748337
82.10000000 635.86243944 0.98748337
82.20000000 635.86243944 0.98748337
82.30000000 635.86243944 0.98748337
82.40000000 635.86243944 0.98748337
82.50000000 635.86243944 0.98748337
82.60000000 635.86243944 0.98748337
82.70000000 635.86243944 0.98748337
82.80000000 635.86243944 0.98748337
82.90000000 635.86243944 0.98748337
83.00000000 635.86558296 0.98748825
83.10000000 635.86558296 0.98748825
83.20000000 635.86558296 0.98748825
83.30000000 635.86558296 0.98748825
83.40000000 635.86558296 0.98748825
83.50000000 635.86558296 0.98748825
83.60000000 643.70909840 0.99966909
83.70000000 643.70909840 0.99966909
83.80000000 643.70909840 0.99966909
83.90000000 643.70909840 0.99966909
84.00000000 643.70909840 0.99966909
84.10000000 643.70909840 0.99966909
84.20000000 643.70909840 0.99966909
84.30000000 643.82862976 0.99985472
84.40000000 643.82963448 0.99985629
84.50000000 643.82963448 0.99985629
84.60000000 643.83084780 0.99985817
84.70000000 643.83084780 0.99985817
84.80000000 643.83084780 0.99985817
84.90000000 643.83084780 0.99985817
85.00000000 643.83084780 0.99985817
85.10000000 643.83084780 0.99985817
85.20000000 643.83084780 0.99985817
85.30000000 643.83084780 0.99985817
85.40000000 643.83084780 0.99985817
85.50000000 643.83084780 0.99985817
85.60000000 643.83084780 0.99985817
85.70000000 643.83084780 0.99985817
85.80000000 643.83084780 0.99985817
85.90000000 643.83084780 0.99985817
86.00000000 643.83084780 0.99985817
86.10000000 643.83084780 0.99985817
86.20000000 643.83084780 0.99985817
86.30000000 643.92217572 1.00000000
86.40000000 643.92217572 1.00000000
86.50000000 643.92217572 1.00000000
86.60000000 643.92217572 1.00000000
86.70000000 643.92217572 1.00000000
86.80000000 643.92217572 1.00000000
86.90000000 643.92217572 1.00000000
87.00000000 643.92217572 1.00000000
87.10000000 643.92217572 1.00000000
87.20000000 643.92217572 1.00000000
87.30000000 643.92217572 1.00000000
87.40000000 643.92217572 1.00000000
87.50000000 643.92217572 1.00000000
87.60000000 643.92217572 1.00000000
87.70000000 643.92217572 1.00000000
87.80000000 643.92217572 1.00000000
87.90000000 643.92217572 1.00000000
88.00000000 643.92217572 1.00000000
88.10000000 643.92217572 1.00000000
88.20000000 643.92217572 1.00000000
88.30000000 643.92217572 1.00000000
88.40000000 643.92217572 1.00000000
88.50000000 643.92217572 1.00000000
88.60000000 643.92217572 1.00000000
88.70000000 643.92217572 1.00000000
88.80000000 643.92217572 1.00000000
88.90000000 643.92217572 1.00000000
89.00000000 643.92217572 1.00000000
89.10000000 643.92217572 1.00000000
89.20000000 643.92217572 1.00000000
89.30000000 643.92217572 1.00000000
89.40000000 643.92217572 1.00000000
89.50000000 643.92217572 1.00000000
89.60000000 643.92217572 1.00000000
89.70000000 643.92217572 1.00000000
89.80000000 643.92217572 1.00000000
89.90000000 643.92217572 1.00000000
90.00000000 643.92217572 1.00000000
