# Theta (deg), Enclosed Intensity, Normalized Enclosed Intensity
0.00000000 0.00000000 0.00000000
0.10000000 0.00000000 0.00000000
0.20000000 0.00000000 0.00000000
0.30000000 0.00000000 0.00000000
0.40000000 0.00000000 0.00000000
0.50000000 0.05901416 0.00009985
0.60000000 0.05901416 0.00009985
0.70000000 4.02249684 0.00680625
0.80000000 4.02249684 0.00680625
0.90000000 4.07807396 0.00690029
1.00000000 4.07807396 0.00690029
1.10000000 4.07807396 0.00690029
1.20000000 4.07807396 0.00690029
1.30000000 4.07807396 0.00690029
1.40000000 4.07807396 0.00690029
1.50000000 4.07807396 0.00690029
1.60000000 4.12300940 0.00697633
1.70000000 12.04984044 0.02038889
1.80000000 12.04984044 0.02038889
1.90000000 12.04984044 0.02038889
2.00000000 12.18282620 0.02061391
2.10000000 12.18282620 0.02061391
2.20000000 16.17836604 0.02737455
2.30000000 16.17836604 0.02737455
2.40000000 16.17836604 0.02737455
2.50000000 24.10500700 0.04078680
2.60000000 24.10500700 0.04078680
2.70000000 24.10500700 0.04078680
2.80000000 24.10500700 0.04078680
2.90000000 24.10500700 0.04078680
3.00000000 24.10500700 0.04078680
3.10000000 24.10500700 0.04078680
3.20000000 24.10500700 0.04078680
3.30000000 32.02950788 0.05419543
3.40000000 32.02950788 0.05419543
3.50000000 32.02950788 0.05419543
3.60000000 39.95471780 0.06760525
3.70000000 40.29653620 0.06818363
3.80000000 40.31949348 0.06822247
3.90000000 40.31949348 0.06822247
4.00000000 52.64025656 0.08906978
4.10000000 53.34345128 0.09025962
4.20000000 53.34345128 0.09025962
4.30000000 53.35837840 0.09028488
4.40000000 53.37149120 0.09030706
4.50000000 65.25487196 0.11041430
4.60000000 65.25487196 0.11041430
4.70000000 65.25487196 0.11041430
4.80000000 65.25487196 0.11041430
4.90000000 65.25487196 0.11041430
5.00000000 65.29921672 0.11048933
5.10000000 73.23220032 0.12391231
5.20000000 73.23220032 0.12391231
5.30000000 73.23220032 0.12391231
5.40000000 81.15978240 0.13732615
5.50000000 81.15978240 0.13732615
5.60000000 96.98984976 0.16411137
5.70000000 97.06417952 0.16423714
5.80000000 97.06417952 0.16423714
5.90000000 97.70199064 0.16531634
6.00000000 97.70199064 0.16531634
6.10000000 97.70199064 0.16531634
6.20000000 97.70199064 0.16531634
6.30000000 97.70199064 0.16531634
6.40000000 105.47013576 0.17846041
6.50000000 109.42390012 0.18515036
6.60000000 109.42390012 0.18515036
6.70000000 109.42390012 0.18515036
6.80000000 109.42390012 0.18515036
6.90000000 109.43081908 0.18516207
7.00000000 117.32404684 0.19851778
7.10000000 117.32404684 0.19851778
7.20000000 117.33918500 0.19854340
7.30000000 140.99185108 0.23856482
7.40000000 141.53887348 0.23949040
7.50000000 141.56795604 0.23953961
7.60000000 157.29067604 0.26614319
7.70000000 157.29067604 0.26614319
7.80000000 165.16147172 0.27946095
7.90000000 165.16147172 0.27946095
8.00000000 165.16147172 0.27946095
8.10000000 172.92067276 0.29258988
8.20000000 172.92067276 0.29258988
8.30000000 188.62686380 0.31916549
8.40000000 188.62686380 0.31916549
8.50000000 196.44497212 0.33239409
8.60000000 196.44497212 0.33239409
8.70000000 196.44497212 0.33239409
8.80000000 196.44497212 0.33239409
8.90000000 196.44497212 0.33239409
9.00000000 204.25838260 0.34561475
9.10000000 212.05699068 0.35881036
9.20000000 212.05699068 0.35881036
9.30000000 219.86439820 0.37202086
9.40000000 220.59923468 0.37326424
9.50000000 220.59923468 0.37326424
9.60000000 220.59923468 0.37326424
9.70000000 227.30672900 0.38461363
9.80000000 228.82500868 0.38718263
9.90000000 228.82500868 0.38718263
10.00000000 244.34374900 0.41344107
10.10000000 244.34374900 0.41344107
10.20000000 259.77408100 0.43954991
10.30000000 259.77408100 0.43954991
10.40000000 271.37388436 0.45917732
10.50000000 271.37388436 0.45917732
10.60000000 271.38353004 0.45919364
10.70000000 301.44586948 0.51006053
10.80000000 309.11539900 0.52303773
10.90000000 309.11539900 0.52303773
11.00000000 309.11539900 0.52303773
11.10000000 309.11539900 0.52303773
11.20000000 324.19892636 0.54855977
11.30000000 324.19892636 0.54855977
11.40000000 335.64900580 0.56793384
11.50000000 335.65962628 0.56795181
11.60000000 335.65962628 0.56795181
11.70000000 343.13528332 0.58060097
11.80000000 346.68049548 0.58659964
11.90000000 346.68049548 0.58659964
12.00000000 354.23004636 0.59937383
12.10000000 354.23893068 0.59938886
12.20000000 361.70809508 0.61202704
12.30000000 368.79058812 0.62401095
12.40000000 368.79058812 0.62401095
12.50000000 368.79058812 0.62401095
12.60000000 383.69389916 0.64922805
12.70000000 383.69583512 0.64923132
12.80000000 383.69583512 0.64923132
12.90000000 383.69583512 0.64923132
13.00000000 391.14165680 0.66183000
13.10000000 391.14165680 0.66183000
13.20000000 391.14165680 0.66183000
13.30000000 391.14165680 0.66183000
13.40000000 398.39011064 0.67409473
13.50000000 398.39700272 0.67410639
13.60000000 398.39700272 0.67410639
13.70000000 398.39700272 0.67410639
13.80000000 404.98026264 0.68524557
13.90000000 419.28542216 0.70945057
14.00000000 419.28542216 0.70945057
14.10000000 419.28542216 0.70945057
14.20000000 419.28542216 0.70945057
14.30000000 426.49063344 0.72164213
14.40000000 426.49063344 0.72164213
14.50000000 426.49063344 0.72164213
14.60000000 426.49063344 0.72164213
14.70000000 426.49063344 0.72164213
14.80000000 426.49063344 0.72164213
14.90000000 447.19619376 0.75667690
15.00000000 447.19619376 0.75667690
15.10000000 457.74826320 0.77453150
15.20000000 457.75470808 0.77454241
15.30000000 464.62135904 0.78616110
15.40000000 464.62135904 0.78616110
15.50000000 466.20501928 0.78884073
15.60000000 466.20501928 0.78884073
15.70000000 466.20501928 0.78884073
15.80000000 481.71576916 0.81508564
15.90000000 481.72001012 0.81509282
16.00000000 481.72001012 0.81509282
16.10000000 481.72001012 0.81509282
16.20000000 481.72001012 0.81509282
16.30000000 481.72621764 0.81510332
16.40000000 481.72621764 0.81510332
16.50000000 481.72621764 0.81510332
16.60000000 481.72621764 0.81510332
16.70000000 481.72621764 0.81510332
16.80000000 481.72621764 0.81510332
16.90000000 481.72621764 0.81510332
17.00000000 481.72621764 0.81510332
17.10000000 486.15795844 0.82260204
17.20000000 486.15795844 0.82260204
17.30000000 486.15795844 0.82260204
17.40000000 486.15795844 0.82260204
17.50000000 486.15795844 0.82260204
17.60000000 486.16051260 0.82260636
17.70000000 492.44956924 0.83324774
17.80000000 497.38466052 0.84159814
17.90000000 497.38466052 0.84159814
18.00000000 497.38652460 0.84160130
18.10000000 497.38652460 0.84160130
18.20000000 497.38652460 0.84160130
18.30000000 497.38652460 0.84160130
18.40000000 497.38652460 0.84160130
18.50000000 497.38652460 0.84160130
18.60000000 509.07383980 0.86137678
18.70000000 509.07383980 0.86137678
18.80000000 509.07383980 0.86137678
18.90000000 514.96550324 0.87134575
19.00000000 514.96550324 0.87134575
19.10000000 514.96550324 0.87134575
19.20000000 520.77023468 0.88116763
19.30000000 520.77023468 0.88116763
19.40000000 520.77023468 0.88116763
19.50000000 525.82509044 0.88972068
19.60000000 525.82509044 0.88972068
19.70000000 527.69733932 0.89288861
19.80000000 527.69733932 0.89288861
19.90000000 527.69733932 0.89288861
20.00000000 527.69733932 0.89288861
20.10000000 527.69733932 0.89288861
20.20000000 527.69733932 0.89288861
20.30000000 527.69733932 0.89288861
20.40000000 527.69733932 0.89288861
20.50000000 527.69733932 0.89288861
20.60000000 532.90104428 0.90169353
20.70000000 532.90104428 0.90169353
20.80000000 532.90104428 0.90169353
20.90000000 536.76691212 0.90823476
21.00000000 536.76691212 0.90823476
21.10000000 536.76691212 0.90823476
21.20000000 536.76691212 0.90823476
21.30000000 536.76691212 0.90823476
21.40000000 547.57296876 0.92651911
21.50000000 550.13292996 0.93085068
21.60000000 550.13292996 0.93085068
21.70000000 550.13292996 0.93085068
21.80000000 550.13292996 0.93085068
21.90000000 553.04269644 0.93577414
22.00000000 553.04269644 0.93577414
22.10000000 553.04364468 0.93577575
22.20000000 557.64573140 0.94356270
22.30000000 557.64573140 0.94356270
22.40000000 557.64573140 0.94356270
22.50000000 557.64573140 0.94356270
22.60000000 557.64573140 0.94356270
22.70000000 557.64573140 0.94356270
22.80000000 557.64573140 0.94356270
22.90000000 557.64573140 0.94356270
23.00000000 557.65446116 0.94357747
23.10000000 557.65446116 0.94357747
23.20000000 557.65446116 0.94357747
23.30000000 557.65446116 0.94357747
23.40000000 561.48380924 0.95005690
23.50000000 561.48380924 0.95005690
23.60000000 561.48380924 0.95005690
23.70000000 565.34677900 0.95659323
23.80000000 565.36644300 0.95662650
23.90000000 565.36644300 0.95662650
24.00000000 565.36644300 0.95662650
24.10000000 565.36644300 0.95662650
24.20000000 565.36644300 0.95662650
24.30000000 565.36644300 0.95662650
24.40000000 565.36644300 0.95662650
24.50000000 565.36644300 0.95662650
24.60000000 565.36644300 0.95662650
24.70000000 565.36644300 0.95662650
24.80000000 567.16688260 0.95967293
24.90000000 567.16688260 0.95967293
25.00000000 567.16688260 0.95967293
25.10000000 567.16688260 0.95967293
25.20000000 567.16688260 0.95967293
25.30000000 567.16688260 0.95967293
25.40000000 567.16688260 0.95967293
25.50000000 567.16688260 0.95967293
25.60000000 567.16688260 0.95967293
25.70000000 567.16688260 0.95967293
25.80000000 567.16688260 0.95967293
25.90000000 567.16688260 0.95967293
26.00000000 567.16688260 0.95967293
26.10000000 567.16688260 0.95967293
26.20000000 567.16688260 0.95967293
26.30000000 567.16688260 0.95967293
26.40000000 567.16688260 0.95967293
26.50000000 567.16688260 0.95967293
26.60000000 567.16688260 0.95967293
26.70000000 567.16688260 0.95967293
26.80000000 567.16820372 0.95967516
26.90000000 567.16820372 0.95967516
27.00000000 567.16820372 0.95967516
27.10000000 567.17703180 0.95969010
27.20000000 567.17703180 0.95969010
27.30000000 567.17703180 0.95969010
27.40000000 567.17703180 0.95969010
27.50000000 567.17703180 0.95969010
27.60000000 567.17703180 0.95969010
27.70000000 567.17876180 0.95969303
27.80000000 567.17876180 0.95969303
27.90000000 567.17876180 0.95969303
28.00000000 567.17876180 0.95969303
28.10000000 567.17876180 0.95969303
28.20000000 567.17876180 0.95969303
28.30000000 567.17876180 0.95969303
28.40000000 567.17876180 0.95969303
28.50000000 567.17876180 0.95969303
28.60000000 569.65403260 0.96388130
28.70000000 569.65403260 0.96388130
28.80000000 569.65403260 0.96388130
28.90000000 569.65403260 0.96388130
29.00000000 569.65403260 0.96388130
29.10000000 569.65403260 0.96388130
29.20000000 569.65403260 0.96388130
29.30000000 569.65403260 0.96388130
29.40000000 569.65403260 0.96388130
29.50000000 569.65403260 0.96388130
29.60000000 569.65403260 0.96388130
29.70000000 569.65403260 0.96388130
29.80000000 570.11692004 0.96466453
29.90000000 570.77239680 0.96577363
30.00000000 570.77383548 0.96577606
30.10000000 570.77633064 0.96578028
30.20000000 570.77633064 0.96578028
30.30000000 570.77633064 0.96578028
30.40000000 570.77633064 0.96578028
30.50000000 570.77633064 0.96578028
30.60000000 570.77633064 0.96578028
30.70000000 570.77714656 0.96578167
30.80000000 570.77714656 0.96578167
30.90000000 571.66578216 0.96728528
31.00000000 571.66908008 0.96729086
31.10000000 571.66908008 0.96729086
31.20000000 571.66908008 0.96729086
31.30000000 571.66908008 0.96729086
31.40000000 571.66908008 0.96729086
31.50000000 571.66908008 0.96729086
31.60000000 571.66908008 0.96729086
31.70000000 571.66908008 0.96729086
31.80000000 571.66908008 0.96729086
31.90000000 571.66908008 0.96729086
32.00000000 571.66908008 0.96729086
32.10000000 571.68157120 0.96731199
32.20000000 571.68157120 0.96731199
32.30000000 571.68157120 0.96731199
32.40000000 571.68157120 0.96731199
32.50000000 571.68157120 0.96731199
32.60000000 571.68157120 0.96731199
32.70000000 571.68157120 0.96731199
32.80000000 571.68157120 0.96731199
32.90000000 571.68157120 0.96731199
33.00000000 571.68157120 0.96731199
33.10000000 571.68157120 0.96731199
33.20000000 571.68157120 0.96731199
33.30000000 571.68270160 0.96731391
33.40000000 571.68270160 0.96731391
33.50000000 571.68270160 0.96731391
33.60000000 571.68270160 0.96731391
33.70000000 571.68270160 0.96731391
33.80000000 571.68270160 0.96731391
33.90000000 571.68270160 0.96731391
34.00000000 571.68270160 0.96731391
34.10000000 571.74009856 0.96741103
34.20000000 571.74009856 0.96741103
34.30000000 571.74009856 0.96741103
34.40000000 571.74009856 0.96741103
34.50000000 571.74009856 0.96741103
34.60000000 571.74009856 0.96741103
34.70000000 571.74009856 0.96741103
34.80000000 571.74009856 0.96741103
34.90000000 571.74009856 0.96741103
35.00000000 571.74009856 0.96741103
35.10000000 571.74009856 0.96741103
35.20000000 571.90878104 0.96769644
35.30000000 571.90878104 0.96769644
35.40000000 571.90878104 0.96769644
35.50000000 571.90878104 0.96769644
35.60000000 571.90878104 0.96769644
35.70000000 571.90878104 0.96769644
35.80000000 571.90996008 0.96769844
35.90000000 571.90996008 0.96769844
36.00000000 571.91267456 0.96770303
36.10000000 571.91267456 0.96770303
36.20000000 571.91598992 0.96770864
36.30000000 571.91598992 0.96770864
36.40000000 571.91598992 0.96770864
36.50000000 571.91598992 0.96770864
36.60000000 571.91598992 0.96770864
36.70000000 571.91598992 0.96770864
36.80000000 571.91598992 0.96770864
36.90000000 571.91598992 0.96770864
37.00000000 571.91598992 0.96770864
37.10000000 571.91598992 0.96770864
37.20000000 571.91598992 0.96770864
37.30000000 571.92111920 0.96771732
37.40000000 571.92111920 0.96771732
37.50000000 571.92111920 0.96771732
37.60000000 571.92724768 0.96772769
37.70000000 571.96695656 0.96779488
37.80000000 571.96695656 0.96779488
37.90000000 571.96695656 0.96779488
38.00000000 571.96695656 0.96779488
38.10000000 571.96695656 0.96779488
38.20000000 571.96695656 0.96779488
38.30000000 571.96695656 0.96779488
38.40000000 571.96695656 0.96779488
38.50000000 571.96695656 0.96779488
38.60000000 571.96695656 0.96779488
38.70000000 571.96695656 0.96779488
38.80000000 571.96695656 0.96779488
38.90000000 571.96695656 0.96779488
39.00000000 572.11368208 0.96804315
39.10000000 572.11368208 0.96804315
39.20000000 572.11368208 0.96804315
39.30000000 572.11368208 0.96804315
39.40000000 572.11368208 0.96804315
39.50000000 572.11368208 0.96804315
39.60000000 572.11368208 0.96804315
39.70000000 572.11502128 0.96804541
39.80000000 572.11591024 0.96804692
39.90000000 572.11591024 0.96804692
40.00000000 572.11591024 0.96804692
40.10000000 572.24734792 0.96826931
40.20000000 572.24734792 0.96826931
40.30000000 572.24830480 0.96827093
40.40000000 572.24830480 0.96827093
40.50000000 572.24830480 0.96827093
40.60000000 572.26060472 0.96829175
40.70000000 572.26060472 0.96829175
40.80000000 572.26060472 0.96829175
40.90000000 572.26060472 0.96829175
41.00000000 572.26236512 0.96829472
41.10000000 572.26236512 0.96829472
41.20000000 572.26236512 0.96829472
41.30000000 572.26236512 0.96829472
41.40000000 572.26236512 0.96829472
41.50000000 572.26236512 0.96829472
41.60000000 572.26615340 0.96830113
41.70000000 572.28441004 0.96833203
41.80000000 572.28441004 0.96833203
41.90000000 572.28441004 0.96833203
42.00000000 572.28441004 0.96833203
42.10000000 572.28441004 0.96833203
42.20000000 572.28441004 0.96833203
42.30000000 572.28441004 0.96833203
42.40000000 572.28441004 0.96833203
42.50000000 572.28713340 0.96833663
42.60000000 572.28713340 0.96833663
42.70000000 572.28713340 0.96833663
42.80000000 572.28713340 0.96833663
42.90000000 572.31948420 0.96839137
43.00000000 572.31948420 0.96839137
43.10000000 572.32198372 0.96839560
43.20000000 572.32198372 0.96839560
43.30000000 572.32198372 0.96839560
43.40000000 572.32840300 0.96840646
43.50000000 572.32840300 0.96840646
43.60000000 572.48551564 0.96867231
43.70000000 572.48551564 0.96867231
43.80000000 572.50233740 0.96870077
43.90000000 572.50233740 0.96870077
44.00000000 572.50233740 0.96870077
44.10000000 572.50233740 0.96870077
44.20000000 572.50233740 0.96870077
44.30000000 572.50233740 0.96870077
44.40000000 572.50233740 0.96870077
44.50000000 572.50409816 0.96870375
44.60000000 572.52382536 0.96873713
44.70000000 572.52382536 0.96873713
44.80000000 572.52382536 0.96873713
44.90000000 572.59712768 0.96886116
45.00000000 572.60467600 0.96887393
45.10000000 572.60467600 0.96887393
45.20000000 572.60467600 0.96887393
45.30000000 572.60467600 0.96887393
45.40000000 572.60467600 0.96887393
45.50000000 572.64264816 0.96893818
45.60000000 572.64264816 0.96893818
45.70000000 572.64264816 0.96893818
45.80000000 572.64264816 0.96893818
45.90000000 572.64264816 0.96893818
46.00000000 572.64264816 0.96893818
46.10000000 572.64264816 0.96893818
46.20000000 572.64264816 0.96893818
46.30000000 572.65081728 0.96895200
46.40000000 572.67068552 0.96898562
46.50000000 572.67068552 0.96898562
46.60000000 572.67068552 0.96898562
46.70000000 572.67068552 0.96898562
46.80000000 572.67068552 0.96898562
46.90000000 572.67068552 0.96898562
47.00000000 572.67068552 0.96898562
47.10000000 572.67068552 0.96898562
47.20000000 572.67068552 0.96898562
47.30000000 572.67068552 0.96898562
47.40000000 572.67068552 0.96898562
47.50000000 572.67068552 0.96898562
47.60000000 572.67068552 0.96898562
47.70000000 572.67068552 0.96898562
47.80000000 572.67068552 0.96898562
47.90000000 572.67068552 0.96898562
48.00000000 572.70938840 0.96905111
48.10000000 572.70938840 0.96905111
48.20000000 572.70938840 0.96905111
48.30000000 572.70938840 0.96905111
48.40000000 572.70938840 0.96905111
48.50000000 572.76009008 0.96913690
48.60000000 572.76009008 0.96913690
48.70000000 572.76009008 0.96913690
48.80000000 572.76009008 0.96913690
48.90000000 572.76009008 0.96913690
49.00000000 572.76009008 0.96913690
49.10000000 572.76009008 0.96913690
49.20000000 572.76466896 0.96914465
49.30000000 572.78602272 0.96918078
49.40000000 572.78602272 0.96918078
49.50000000 572.78602272 0.96918078
49.60000000 572.78602272 0.96918078
49.70000000 572.78602272 0.96918078
49.80000000 573.02516464 0.96958542
49.90000000 573.02516464 0.96958542
50.00000000 573.02516464 0.96958542
50.10000000 573.02516464 0.96958542
50.20000000 573.02516464 0.96958542
50.30000000 573.02516464 0.96958542
50.40000000 573.02516464 0.96958542
50.50000000 573.02516464 0.96958542
50.60000000 573.02516464 0.96958542
50.70000000 573.02516464 0.96958542
50.80000000 573.04135696 0.96961282
50.90000000 573.04135696 0.96961282
51.00000000 573.04135696 0.96961282
51.10000000 573.04135696 0.96961282
51.20000000 573.04135696 0.96961282
51.30000000 573.04135696 0.96961282
51.40000000 573.04135696 0.96961282
51.50000000 573.04135696 0.96961282
51.60000000 573.04135696 0.96961282
51.70000000 573.04135696 0.96961282
51.80000000 573.04135696 0.96961282
51.90000000 573.04135696 0.96961282
52.00000000 573.04135696 0.96961282
52.10000000 573.04135696 0.96961282
52.20000000 573.04135696 0.96961282
52.30000000 573.04135696 0.96961282
52.40000000 573.16025032 0.96981399
52.50000000 573.16025032 0.96981399
52.60000000 573.16025032 0.96981399
52.70000000 573.16025032 0.96981399
52.80000000 573.16025032 0.96981399
52.90000000 573.16025032 0.96981399
53.00000000 573.16025032 0.96981399
53.10000000 573.16025032 0.96981399
53.20000000 573.16025032 0.96981399
53.30000000 573.16025032 0.96981399
53.40000000 573.16025032 0.96981399
53.50000000 573.16025032 0.96981399
53.60000000 573.16230504 0.96981747
53.70000000 573.16317304 0.96981893
53.80000000 573.16317304 0.96981893
53.90000000 573.16317304 0.96981893
54.00000000 573.16317304 0.96981893
54.10000000 573.16317304 0.96981893
54.20000000 573.16317304 0.96981893
54.30000000 573.16317304 0.96981893
54.40000000 573.16317304 0.96981893
54.50000000 573.16317304 0.96981893
54.60000000 573.16317304 0.96981893
54.70000000 573.16317304 0.96981893
54.80000000 573.18357452 0.96985345
54.90000000 573.20136748 0.96988356
55.00000000 573.20136748 0.96988356
55.10000000 573.20136748 0.96988356
55.20000000 573.20136748 0.96988356
55.30000000 573.20136748 0.96988356
55.40000000 573.20136748 0.96988356
55.50000000 573.20136748 0.96988356
55.60000000 573.20484380 0.96988944
55.70000000 573.20484380 0.96988944
55.80000000 573.20484380 0.96988944
55.90000000 573.20484380 0.96988944
56.00000000 573.20484380 0.96988944
56.10000000 573.20484380 0.96988944
56.20000000 573.20484380 0.96988944
56.30000000 573.20484380 0.96988944
56.40000000 573.21325348 0.96990367
56.50000000 573.21325348 0.96990367
56.60000000 573.21325348 0.96990367
56.70000000 573.21325348 0.96990367
56.80000000 573.21325348 0.96990367
56.90000000 573.21325348 0.96990367
57.00000000 573.21325348 0.96990367
57.10000000 573.21325348 0.96990367
57.20000000 573.21325348 0.96990367
57.30000000 573.21325348 0.96990367
57.40000000 573.21325348 0.96990367
57.50000000 573.21325348 0.96990367
57.60000000 573.21325348 0.96990367
57.70000000 573.21325348 0.96990367
57.80000000 573.21325348 0.96990367
57.90000000 573.21325348 0.96990367
58.00000000 573.21325348 0.96990367
58.10000000 573.21325348 0.96990367
58.20000000 573.21325348 0.96990367
58.30000000 573.21919068 0.96991372
58.40000000 573.21919068 0.96991372
58.50000000 573.21919068 0.96991372
58.60000000 573.21919068 0.96991372
58.70000000 573.21919068 0.96991372
58.80000000 573.21919068 0.96991372
58.90000000 573.21919068 0.96991372
59.00000000 573.21919068 0.96991372
59.10000000 573.21919068 0.96991372
59.20000000 573.21919068 0.96991372
59.30000000 573.21919068 0.96991372
59.40000000 573.21919068 0.96991372
59.50000000 573.21919068 0.96991372
59.60000000 573.21919068 0.96991372
59.70000000 573.21919068 0.96991372
59.80000000 573.21919068 0.96991372
59.90000000 573.23719972 0.96994419
60.00000000 573.23719972 0.96994419
60.10000000 573.23719972 0.96994419
60.20000000 573.23719972 0.96994419
60.30000000 573.24276404 0.96995361
60.40000000 573.24276404 0.96995361
60.50000000 573.24276404 0.96995361
60.60000000 573.24276404 0.96995361
60.70000000 573.24276404 0.96995361
60.80000000 573.24276404 0.96995361
60.90000000 573.24519836 0.96995772
61.00000000 573.24519836 0.96995772
61.10000000 573.24519836 0.96995772
61.20000000 573.24519836 0.96995772
61.30000000 573.24519836 0.96995772
61.40000000 573.24519836 0.96995772
61.50000000 573.24519836 0.96995772
61.60000000 573.24519836 0.96995772
61.70000000 573.24519836 0.96995772
61.80000000 573.24519836 0.96995772
61.90000000 573.24634988 0.96995967
62.00000000 573.24634988 0.96995967
62.10000000 573.24634988 0.96995967
62.20000000 573.24634988 0.96995967
62.30000000 573.24634988 0.96995967
62.40000000 573.26006916 0.96998289
62.50000000 573.26096260 0.96998440
62.60000000 573.26096260 0.96998440
62.70000000 573.26096260 0.96998440
62.80000000 573.26096260 0.96998440
62.90000000 573.26096260 0.96998440
63.00000000 573.26096260 0.96998440
63.10000000 573.26096260 0.96998440
63.20000000 573.26096260 0.96998440
63.30000000 573.26096260 0.96998440
63.40000000 573.26096260 0.96998440
63.50000000 573.26096260 0.96998440
63.60000000 573.26096260 0.96998440
63.70000000 573.26096260 0.96998440
63.80000000 573.26096260 0.96998440
63.90000000 573.26096260 0.96998440
64.00000000 573.26096260 0.96998440
64.10000000 573.26096260 0.96998440
64.20000000 573.26201292 0.96998618
64.30000000 573.26201292 0.96998618
64.40000000 573.26201292 0.96998618
64.50000000 573.26201292 0.96998618
64.60000000 573.26201292 0.96998618
64.70000000 573.26201292 0.96998618
64.80000000 573.26201292 0.96998618
64.90000000 573.26201292 0.96998618
65.00000000 573.26201292 0.96998618
65.10000000 573.26201292 0.96998618
65.20000000 573.26201292 0.96998618
65.30000000 573.26201292 0.96998618
65.40000000 573.26201292 0.96998618
65.50000000 573.26201292 0.96998618
65.60000000 573.26597516 0.96999288
65.70000000 573.26597516 0.96999288
65.80000000 573.27047420 0.97000049
65.90000000 573.27047420 0.97000049
66.00000000 573.27047420 0.97000049
66.10000000 573.27047420 0.97000049
66.20000000 573.27047420 0.97000049
66.30000000 573.27324668 0.97000518
66.40000000 573.27324668 0.97000518
66.50000000 573.27324668 0.97000518
66.60000000 573.27324668 0.97000518
66.70000000 573.27324668 0.97000518
66.80000000 573.27324668 0.97000518
66.90000000 573.27324668 0.97000518
67.00000000 573.27324668 0.97000518
67.10000000 573.28916948 0.97003213
67.20000000 573.28916948 0.97003213
67.30000000 573.28916948 0.97003213
67.40000000 573.28916948 0.97003213
67.50000000 573.28916948 0.97003213
67.60000000 573.28916948 0.97003213
67.70000000 573.28916948 0.97003213
67.80000000 573.28916948 0.97003213
67.90000000 573.28916948 0.97003213
68.00000000 573.28916948 0.97003213
68.10000000 573.29002668 0.97003358
68.20000000 573.29002668 0.97003358
68.30000000 573.29002668 0.97003358
68.40000000 573.29002668 0.97003358
68.50000000 573.29002668 0.97003358
68.60000000 573.29002668 0.97003358
68.70000000 573.29002668 0.97003358
68.80000000 573.29002668 0.97003358
68.90000000 573.29002668 0.97003358
69.00000000 573.29002668 0.97003358
69.10000000 573.29002668 0.97003358
69.20000000 573.29002668 0.97003358
69.30000000 573.29002668 0.97003358
69.40000000 573.29002668 0.97003358
69.50000000 573.29002668 0.97003358
69.60000000 573.29002668 0.97003358
69.70000000 573.29002668 0.97003358
69.80000000 573.31529748 0.97007634
69.90000000 573.31529748 0.97007634
70.00000000 573.31529748 0.97007634
70.10000000 573.31529748 0.97007634
70.20000000 573.31529748 0.97007634
70.30000000 573.31529748 0.97007634
70.40000000 573.31645940 0.97007830
70.50000000 573.31645940 0.97007830
70.60000000 573.31645940 0.97007830
70.70000000 573.31645940 0.97007830
70.80000000 573.31645940 0.97007830
70.90000000 573.31645940 0.97007830
71.00000000 573.32761284 0.97009717
71.10000000 573.33678980 0.97011270
71.20000000 573.33678980 0.97011270
71.30000000 573.33678980 0.97011270
71.40000000 573.33678980 0.97011270
71.50000000 573.33678980 0.97011270
71.60000000 573.33678980 0.97011270
71.70000000 573.33678980 0.97011270
71.80000000 573.33678980 0.97011270
71.90000000 573.33678980 0.97011270
72.00000000 573.33678980 0.97011270
72.10000000 573.33678980 0.97011270
72.20000000 573.33678980 0.97011270
72.30000000 573.33678980 0.97011270
72.40000000 573.33678980 0.97011270
72.50000000 573.33678980 0.97011270
72.60000000 573.33678980 0.97011270
72.70000000 573.33678980 0.97011270
72.80000000 573.33678980 0.97011270
72.90000000 573.33678980 0.97011270
73.00000000 573.33678980 0.97011270
73.10000000 573.33678980 0.97011270
73.20000000 573.33678980 0.97011270
73.30000000 573.33678980 0.97011270
73.40000000 573.33678980 0.97011270
73.50000000 573.33678980 0.97011270
73.60000000 573.33830716 0.97011527
73.70000000 573.33830716 0.97011527
73.80000000 573.33830716 0.97011527
73.90000000 573.35421428 0.97014218
74.00000000 573.35421428 0.97014218
74.10000000 573.35421428 0.97014218
74.20000000 573.35421428 0.97014218
74.30000000 573.35421428 0.97014218
74.40000000 573.35588060 0.97014500
74.50000000 573.35588060 0.97014500
74.60000000 573.35588060 0.97014500
74.70000000 573.35588060 0.97014500
74.80000000 573.35588060 0.97014500
74.90000000 573.35588060 0.97014500
75.00000000 573.35588060 0.97014500
75.10000000 573.35654564 0.97014613
75.20000000 573.35654564 0.97014613
75.30000000 573.35654564 0.97014613
75.40000000 573.35654564 0.97014613
75.50000000 573.35654564 0.97014613
75.60000000 573.35654564 0.97014613
75.70000000 573.35654564 0.97014613
75.80000000 573.35654564 0.97014613
75.90000000 573.35654564 0.97014613
76.00000000 573.35654564 0.97014613
76.10000000 573.35654564 0.97014613
76.20000000 573.35654564 0.97014613
76.30000000 573.35654564 0.97014613
76.40000000 573.35654564 0.97014613
76.50000000 573.35654564 0.97014613
76.60000000 573.35654564 0.97014613
76.70000000 573.35654564 0.97014613
76.80000000 573.35654564 0.97014613
76.90000000 573.35654564 0.97014613
77.00000000 573.35654564 0.97014613
77.10000000 573.35654564 0.97014613
77.20000000 573.35654564 0.97014613
77.30000000 573.35654564 0.97014613
77.40000000 573.35654564 0.97014613
77.50000000 573.35654564 0.97014613
77.60000000 581.34837972 0.98366869
77.70000000 581.34837972 0.98366869
77.80000000 581.34837972 0.98366869
77.90000000 581.34837972 0.98366869
78.00000000 581.34837972 0.98366869
78.10000000 581.34837972 0.98366869
78.20000000 581.34837972 0.98366869
78.30000000 581.34837972 0.98366869
78.40000000 581.34837972 0.98366869
78.50000000 581.36513108 0.98369703
78.60000000 581.36513108 0.98369703
78.70000000 581.36513108 0.98369703
78.80000000 581.36513108 0.98369703
78.90000000 581.36513108 0.98369703
79.00000000 581.36513108 0.98369703
79.10000000 581.36695604 0.98370012
79.20000000 581.36695604 0.98370012
79.30000000 581.36695604 0.98370012
79.40000000 581.36695604 0.98370012
79.50000000 581.36695604 0.98370012
79.60000000 581.36695604 0.98370012
79.70000000 581.36934256 0.98370416
79.80000000 581.36934256 0.98370416
79.90000000 581.36934256 0.98370416
80.00000000 581.36934256 0.98370416
80.10000000 581.36934256 0.98370416
80.20000000 581.36934256 0.98370416
80.30000000 581.36934256 0.98370416
80.40000000 581.36934256 0.98370416
80.50000000 581.36934256 0.98370416
80.60000000 581.36934256 0.98370416
80.70000000 581.36934256 0.98370416
80.80000000 581.36934256 0.98370416
80.90000000 581.36934256 0.98370416
81.00000000 581.36934256 0.98370416
81.10000000 581.36934256 0.98370416
81.20000000 581.36934256 0.98370416
81.30000000 581.37054056 0.98370618
81.40000000 581.37054056 0.98370618
81.50000000 581.37054056 0.98370618
81.60000000 581.37054056 0.98370618
81.70000000 581.37054056 0.98370618
81.80000000 581.39279992 0.98374385
81.90000000 581.39279992 0.98374385
82.00000000 583.18083128 0.98676928
82.10000000 583.18083128 0.98676928
82.20000000 583.18899888 0.98678310
82.30000000 583.18899888 0.98678310
82.40000000 583.18899888 0.98678310
82.50000000 583.18899888 0.98678310
82.60000000 583.18899888 0.98678310
82.70000000 583.18899888 0.98678310
82.80000000 583.18899888 0.98678310
82.90000000 583.18899888 0.98678310
83.00000000 583.18899888 0.98678310
83.10000000 583.18899888 0.98678310
83.20000000 583.18899888 0.98678310
83.30000000 590.98428728 0.99997309
83.40000000 590.98428728 0.99997309
83.50000000 590.98428728 0.99997309
83.60000000 590.98428728 0.99997309
83.70000000 590.98428728 0.99997309
83.80000000 590.98428728 0.99997309
83.90000000 590.98717352 0.99997798
84.00000000 590.98717352 0.99997798
84.10000000 590.98717352 0.99997798
84.20000000 590.98717352 0.99997798
84.30000000 590.98717352 0.99997798
84.40000000 590.98717352 0.99997798
84.50000000 590.99085704 0.99998421
84.60000000 590.99085704 0.99998421
84.70000000 590.99085704 0.99998421
84.80000000 590.99085704 0.99998421
84.90000000 590.99085704 0.99998421
85.00000000 590.99085704 0.99998421
85.10000000 590.99085704 0.99998421
85.20000000 590.99085704 0.99998421
85.30000000 590.99085704 0.99998421
85.40000000 590.99085704 0.99998421
85.50000000 590.99085704 0.99998421
85.60000000 590.99085704 0.99998421
85.70000000 590.99085704 0.99998421
85.80000000 590.99085704 0.99998421
85.90000000 590.99085704 0.99998421
86.00000000 590.99085704 0.99998421
86.10000000 590.99085704 0.99998421
86.20000000 590.99085704 0.99998421
86.30000000 590.99085704 0.99998421
86.40000000 590.99085704 0.99998421
86.50000000 590.99085704 0.99998421
86.60000000 590.99085704 0.99998421
86.70000000 590.99085704 0.99998421
86.80000000 590.99085704 0.99998421
86.90000000 590.99085704 0.99998421
87.00000000 590.99085704 0.99998421
87.10000000 590.99085704 0.99998421
87.20000000 590.99085704 0.99998421
87.30000000 590.99085704 0.99998421
87.40000000 590.99085704 0.99998421
87.50000000 590.99085704 0.99998421
87.60000000 590.99085704 0.99998421
87.70000000 590.99085704 0.99998421
87.80000000 590.99085704 0.99998421
87.90000000 590.99085704 0.99998421
88.00000000 590.99085704 0.99998421
88.10000000 590.99085704 0.99998421
88.20000000 590.99085704 0.99998421
88.30000000 590.99085704 0.99998421
88.40000000 590.99085704 0.99998421
88.50000000 590.99085704 0.99998421
88.60000000 590.99085704 0.99998421
88.70000000 590.99085704 0.99998421
88.80000000 590.99428424 0.99999001
88.90000000 590.99428424 0.99999001
89.00000000 590.99428424 0.99999001
89.10000000 590.99428424 0.99999001
89.20000000 590.99428424 0.99999001
89.30000000 590.99428424 0.99999001
89.40000000 590.99428424 0.99999001
89.50000000 590.99428424 0.99999001
89.60000000 590.99428424 0.99999001
89.70000000 590.99428424 0.99999001
89.80000000 591.00018888 1.00000000
89.90000000 591.00018888 1.00000000
90.00000000 591.00018888 1.00000000
